Sample	2mm tape 
date	07/01/2025
	
Temperature (K)	77.00
Angle (deg.)	0.000000
field / T	0.000000
	
		
Approx. trace time (s)	120.0	
		
Current / A	V1  -sample/ uV	time/s
-0.018602	-0.794157	0.000000
-0.018676	-0.797100	0.046000
-0.018486	-0.798931	0.093000
-0.018382	-0.802370	0.138000
-0.019260	-0.803836	0.185000
-0.018388	-0.806238	0.231000
-0.019303	-0.807995	0.277000
-0.018504	-0.808280	0.323000
-0.018252	-0.808390	0.369000
-0.019211	-0.809376	0.416000
-0.018461	-0.809316	0.461000
-0.018283	-0.807074	0.508000
-0.018958	-0.806349	0.554000
0.033618	-0.804902	0.725000
0.057217	-0.805668	0.876000
0.082589	-0.804661	0.923000
0.109011	-0.803141	0.969000
0.133799	-0.801014	1.015000
0.158685	-0.797796	1.062000
0.183956	-0.797130	1.107000
0.210320	-0.796054	1.155000
0.234547	-0.793692	1.200000
0.258548	-0.791975	1.247000
0.283904	-0.789333	1.293000
0.308635	-0.787811	1.339000
0.333950	-0.786820	1.385000
0.359469	-0.785925	1.431000
0.383901	-0.785955	1.478000
0.408907	-0.784648	1.524000
0.434301	-0.783252	1.570000
0.459904	-0.782076	1.617000
0.547590	-0.780745	1.663000
0.628783	-0.759650	1.825000
0.653956	-0.754710	1.976000
0.679191	-0.748380	2.023000
0.704168	-0.742449	2.069000
0.729843	-0.736028	2.116000
0.755366	-0.729232	2.162000
0.780079	-0.721985	2.208000
0.804661	-0.714393	2.254000
0.829063	-0.706076	2.300000
0.854018	-0.697302	2.346000
0.879087	-0.689190	2.392000
0.903929	-0.681408	2.438000
0.929419	-0.671173	2.483000
0.954702	-0.661474	2.530000
0.979727	-0.654668	2.576000
1.004391	-0.646416	2.623000
1.029055	-0.638718	2.669000
1.053935	-0.632808	2.715000
1.143073	-0.625742	2.761000
1.224974	-0.604276	2.925000
1.250226	-0.602078	3.076000
1.275485	-0.599456	3.123000
1.300705	-0.597559	3.170000
1.326049	-0.596655	3.216000
1.350795	-0.593798	3.262000
1.374714	-0.592463	3.308000
1.400016	-0.591588	3.354000
1.424800	-0.589720	3.400000
1.450293	-0.587886	3.446000
1.475239	-0.581609	3.492000
1.500184	-0.577456	3.538000
1.525842	-0.571135	3.584000
1.550819	-0.565953	3.632000
1.575476	-0.561285	3.677000
1.600118	-0.554129	3.724000
1.625704	-0.547947	3.771000
1.650361	-0.539617	3.817000
1.738690	-0.531666	3.863000
1.935653	-0.432637	4.025000
1.960605	-0.422178	4.389000
1.986184	-0.411639	4.436000
2.011251	-0.401521	4.482000
2.036443	-0.393311	4.528000
2.061268	-0.385333	4.574000
2.085768	-0.375845	4.620000
2.110745	-0.368448	4.666000
2.136031	-0.359855	4.713000
2.161382	-0.350857	4.759000
2.186519	-0.342113	4.806000
2.212110	-0.333255	4.853000
2.237185	-0.322701	4.899000
2.262203	-0.311966	4.945000
2.461127	-0.300425	4.991000
2.485946	-0.210277	5.359000
2.510742	-0.199622	5.405000
2.535419	-0.189077	5.451000
2.560934	-0.177692	5.497000
2.586067	-0.167976	5.544000
2.611387	-0.160206	5.590000
2.636642	-0.153445	5.636000
2.661625	-0.146174	5.682000
2.686995	-0.139293	5.728000
2.711742	-0.132946	5.775000
2.736401	-0.124996	5.821000
2.761456	-0.119269	5.868000
2.786236	-0.115281	5.914000
2.811747	-0.110664	5.960000
2.836762	-0.106690	6.006000
2.930813	-0.102908	6.053000
3.011806	-0.098051	6.225000
3.037306	-0.098251	6.376000
3.062283	-0.099564	6.423000
3.087746	-0.099345	6.469000
3.113128	-0.100195	6.516000
3.138958	-0.100125	6.563000
3.164064	-0.099654	6.609000
3.188625	-0.099385	6.656000
3.213629	-0.097906	6.702000
3.238717	-0.097636	6.749000
3.263655	-0.097355	6.795000
3.289037	-0.097416	6.842000
3.313732	-0.096591	6.888000
3.338709	-0.097265	6.933000
3.364258	-0.099275	6.980000
3.389708	-0.098369	7.026000
3.414361	-0.099125	7.072000
3.439724	-0.099385	7.119000
3.525925	-0.100590	7.166000
3.607865	-0.112982	7.325000
3.632856	-0.115030	7.476000
3.657897	-0.116850	7.522000
3.682947	-0.116786	7.568000
3.707607	-0.118774	7.614000
3.732509	-0.118764	7.660000
3.757112	-0.116666	7.707000
3.782681	-0.115041	7.754000
3.807469	-0.112852	7.800000
3.832787	-0.109814	7.846000
3.858513	-0.105387	7.893000
3.883624	-0.101199	7.939000
3.908622	-0.098251	7.984000
3.932148	-0.091844	8.030000
3.957652	-0.087287	8.077000
3.983135	-0.082865	8.123000
4.007676	-0.080111	8.170000
4.033468	-0.077592	8.216000
4.121244	-0.075028	8.262000
4.203809	-0.054471	8.425000
4.229031	-0.046200	8.577000
4.241053	-0.035310	8.623000
4.278402	-0.031477	8.669000
4.303021	-0.024722	8.715000
4.328636	-0.016551	8.762000
4.353901	-0.010459	8.808000
4.379105	-0.003604	8.854000
4.404562	0.003543	8.900000
4.429662	0.011913	8.946000
4.455091	0.020482	8.993000
4.479314	0.028898	9.039000
4.504156	0.037689	9.085000
4.528717	0.043910	9.132000
4.554367	0.046647	9.178000
4.579018	0.050726	9.224000
4.604371	0.054750	9.271000
4.629923	0.057893	9.317000
4.717095	0.061816	9.363000
4.914896	0.088271	9.525000
4.940241	0.088907	9.889000
4.965279	0.087126	9.936000
4.988971	0.084503	9.981000
5.014034	0.080954	10.028000
5.039618	0.077206	10.074000
5.064809	0.072902	10.120000
5.089841	0.067897	10.166000
5.114520	0.061281	10.213000
5.140207	0.054295	10.258000
5.165126	0.046877	10.305000
5.190427	0.038204	10.352000
5.214222	0.032401	10.398000
5.239241	0.025695	10.443000
5.438021	0.018789	10.490000
5.463237	-0.012075	10.856000
5.489067	-0.010690	10.903000
5.513916	-0.008352	10.949000
5.539016	-0.006398	10.996000
5.564372	-0.007147	11.042000
5.588871	-0.004959	11.088000
5.613989	-0.004239	11.135000
5.638722	-0.003965	11.181000
5.663719	-0.001596	11.227000
5.689004	0.000698	11.273000
5.714459	0.002167	11.320000
5.739828	0.002428	11.366000
5.764617	0.003232	11.412000
5.790502	0.004596	11.458000
5.815361	0.004887	11.505000
5.908882	0.006614	11.552000
5.990940	0.013570	11.725000
6.016386	0.014201	11.876000
6.041418	0.013077	11.923000
6.066706	0.012957	11.970000
6.091720	0.009953	12.016000
6.116052	0.005450	12.062000
6.141319	0.002047	12.109000
6.165807	-0.001015	12.155000
6.191792	-0.003184	12.201000
6.216941	-0.007498	12.248000
6.241931	-0.010300	12.293000
6.267369	-0.014193	12.339000
6.291965	-0.018570	12.386000
6.317223	-0.021580	12.432000
6.341231	-0.025023	12.478000
6.365851	-0.028436	12.524000
6.391341	-0.035382	12.570000
6.416313	-0.042447	12.616000
6.504262	-0.049958	12.662000
6.586899	-0.095067	12.825000
6.611961	-0.104211	12.976000
6.636654	-0.112353	13.023000
6.661520	-0.118964	13.069000
6.686276	-0.126834	13.116000
6.711783	-0.134150	13.162000
6.737061	-0.139393	13.208000
6.762002	-0.143245	13.255000
6.787659	-0.145914	13.301000
6.812783	-0.146224	13.347000
6.837918	-0.144200	13.393000
6.862655	-0.143515	13.440000
6.887426	-0.140222	13.487000
6.912288	-0.138497	13.533000
6.937438	-0.138044	13.579000
6.962814	-0.135735	13.625000
6.987914	-0.136529	13.672000
7.012831	-0.138098	13.718000
7.100113	-0.138808	13.764000
7.181910	-0.148613	13.925000
7.207202	-0.151655	14.077000
7.232173	-0.154024	14.123000
7.257427	-0.155953	14.170000
7.282366	-0.158282	14.215000
7.307944	-0.159567	14.262000
7.333060	-0.163759	14.308000
7.358240	-0.166573	14.355000
7.383347	-0.167956	14.401000
7.407297	-0.170825	14.447000
7.432746	-0.173420	14.493000
7.457842	-0.175183	14.540000
7.483486	-0.177222	14.586000
7.509499	-0.180705	14.633000
7.534497	-0.182021	14.680000
7.559547	-0.181235	14.726000
7.584381	-0.183007	14.772000
7.610009	-0.182857	14.818000
7.696721	-0.183893	14.864000
7.893045	-0.221462	15.025000
7.917642	-0.230110	15.388000
7.942958	-0.237136	15.435000
7.968806	-0.241586	15.482000
7.993709	-0.247056	15.528000
8.018926	-0.251290	15.574000
8.044238	-0.257720	15.621000
8.069392	-0.262475	15.667000
8.094178	-0.264967	15.713000
8.118620	-0.266063	15.759000
8.143365	-0.266343	15.804000
8.168363	-0.265863	15.851000
8.193726	-0.265252	15.897000
8.218968	-0.263741	15.943000
8.417994	-0.260828	15.989000
8.443430	-0.201229	16.357000
8.468505	-0.191510	16.404000
8.493633	-0.181610	16.450000
8.517734	-0.173889	16.496000
8.542742	-0.167937	16.542000
8.567746	-0.161150	16.588000
8.593146	-0.154899	16.635000
8.618447	-0.148363	16.681000
8.643558	-0.144990	16.727000
8.668947	-0.140497	16.774000
8.694014	-0.137533	16.821000
8.719624	-0.134984	16.866000
8.743642	-0.133611	16.913000
8.768900	-0.132327	16.959000
8.793715	-0.130587	17.005000
8.887749	-0.130277	17.052000
8.970374	-0.128699	17.225000
8.994489	-0.129142	17.376000
9.019358	-0.127829	17.422000
9.044107	-0.126240	17.468000
9.069632	-0.123822	17.514000
9.094093	-0.121303	17.561000
9.119578	-0.118583	17.606000
9.145010	-0.115161	17.652000
9.170391	-0.112393	17.699000
9.195694	-0.106197	17.746000
9.220873	-0.101008	17.792000
9.245019	-0.095772	17.838000
9.270101	-0.089556	17.885000
9.295202	-0.084518	17.932000
9.320407	-0.076113	17.978000
9.345924	-0.068423	18.024000
9.371322	-0.060906	18.070000
9.396483	-0.053690	18.117000
9.483819	-0.047549	18.163000
9.565406	0.004877	18.324000
9.590671	0.014382	18.477000
9.615611	0.025314	18.522000
9.640310	0.037188	18.569000
9.666098	0.049570	18.615000
9.690893	0.061561	18.661000
9.716389	0.071886	18.707000
9.741320	0.084422	18.754000
9.766083	0.094633	18.800000
9.791023	0.106719	18.846000
9.815860	0.117705	18.893000
9.841077	0.128460	18.938000
9.866245	0.136573	18.985000
9.891532	0.143014	19.032000
9.917233	0.151707	19.078000
9.941912	0.158229	19.124000
9.966889	0.165025	19.170000
9.991707	0.169819	19.217000
10.080174	0.173438	19.263000
10.160822	0.196666	19.424000
10.186437	0.201886	19.576000
10.211235	0.208687	19.622000
10.236994	0.215854	19.669000
10.262017	0.224251	19.715000
10.286712	0.233135	19.760000
10.311683	0.240222	19.808000
10.335803	0.249956	19.854000
10.361141	0.257487	19.900000
10.386097	0.267063	19.945000
10.411824	0.276023	19.992000
10.437200	0.286552	20.039000
10.462365	0.296562	20.085000
10.487659	0.305687	20.132000
10.512431	0.315692	20.177000
10.537265	0.322899	20.224000
10.561577	0.332707	20.270000
10.586577	0.341847	20.316000
10.674755	0.349619	20.362000
10.871551	0.421923	20.525000
10.897139	0.427895	20.889000
10.922750	0.432687	20.936000
10.947556	0.435826	20.981000
10.973013	0.438969	21.028000
10.998383	0.441438	21.074000
11.022897	0.442372	21.121000
11.047342	0.444550	21.167000
11.072821	0.444027	21.214000
11.097968	0.445715	21.260000
11.123497	0.443887	21.306000
11.148835	0.443616	21.353000
11.173609	0.442432	21.399000
11.385370	0.440957	21.445000
11.410628	0.443707	21.837000
11.435422	0.446046	21.883000
11.460657	0.449419	21.930000
11.485630	0.450323	21.975000
11.510704	0.454227	22.021000
11.536247	0.458178	22.067000
11.560869	0.462077	22.114000
11.585295	0.468204	22.160000
11.610309	0.471562	22.206000
11.635703	0.478368	22.253000
11.661211	0.483423	22.300000
11.686360	0.489884	22.346000
11.711081	0.496811	22.392000
11.735963	0.503557	22.438000
11.761466	0.509477	22.484000
11.786710	0.514773	22.531000
11.869168	0.521529	22.577000
11.948051	0.558269	22.731000
11.972729	0.565426	22.875000
11.997971	0.569900	22.922000
12.023490	0.575061	22.968000
12.048041	0.580320	23.014000
12.073428	0.584319	23.060000
12.098353	0.591146	23.107000
12.123350	0.596996	23.152000
12.147994	0.602867	23.199000
12.172891	0.609173	23.245000
12.198309	0.613977	23.292000
12.223685	0.622140	23.339000
12.249377	0.628100	23.385000
12.274761	0.634532	23.432000
12.300011	0.643620	23.478000
12.324848	0.651168	23.524000
12.349800	0.657584	23.571000
12.374603	0.663233	23.617000
12.462707	0.670711	23.663000
12.543992	0.697937	23.825000
12.569491	0.703243	23.976000
12.595110	0.708066	24.023000
12.620356	0.712843	24.069000
12.645560	0.717861	24.116000
12.670156	0.722178	24.162000
12.695538	0.726591	24.209000
12.720098	0.730334	24.256000
12.745130	0.734262	24.301000
12.770444	0.736761	24.348000
12.795306	0.740723	24.394000
12.821099	0.745431	24.441000
12.846192	0.748705	24.487000
12.871186	0.754106	24.532000
12.896071	0.758429	24.579000
12.920881	0.763631	24.625000
12.945943	0.770533	24.672000
12.970840	0.776129	24.719000
13.057725	0.783570	24.764000
13.176491	0.807976	24.925000
13.201265	0.816481	25.143000
13.227200	0.823737	25.190000
13.252403	0.829034	25.237000
13.277617	0.835471	25.283000
13.302423	0.840249	25.329000
13.327126	0.842567	25.376000
13.352221	0.846924	25.422000
13.377267	0.847325	25.469000
13.402406	0.851467	25.515000
13.427599	0.854950	25.561000
13.452857	0.857914	25.607000
13.478331	0.860583	25.654000
13.503964	0.862341	25.701000
13.529026	0.866025	25.747000
13.553897	0.865694	25.793000
13.578906	0.863966	25.840000
13.698321	0.862101	25.887000
13.850928	0.842296	26.108000
13.876400	0.842021	26.389000
13.902040	0.842737	26.436000
13.926667	0.841813	26.482000
13.951698	0.844645	26.529000
13.975987	0.846829	26.575000
14.001427	0.849653	26.621000
14.026475	0.849158	26.668000
14.051931	0.851118	26.714000
14.077030	0.851741	26.760000
14.102284	0.851621	26.806000
14.127581	0.852142	26.853000
14.152243	0.851188	26.899000
14.176926	0.853456	26.945000
14.375430	0.853046	26.991000
14.400571	0.848018	27.359000
14.425598	0.845266	27.404000
14.450838	0.841763	27.451000
14.476458	0.839094	27.497000
14.501339	0.834116	27.543000
14.526515	0.829064	27.589000
14.551385	0.824851	27.636000
14.575987	0.820334	27.681000
14.600360	0.816731	27.728000
14.625143	0.810618	27.774000
14.650935	0.807686	27.820000
14.675917	0.803712	27.867000
14.701551	0.800410	27.913000
14.726532	0.798520	27.959000
14.751945	0.794688	28.006000
14.845736	0.792708	28.051000
14.926765	0.769541	28.224000
14.952037	0.769266	28.376000
14.976569	0.766458	28.421000
15.002959	0.766138	28.468000
15.027763	0.765384	28.514000
15.052298	0.765284	28.560000
15.076944	0.767643	28.606000
15.102299	0.768306	28.653000
15.127569	0.769961	28.700000
15.153046	0.772864	28.746000
15.178220	0.774268	28.792000
15.203511	0.775944	28.838000
15.228834	0.775513	28.884000
15.254063	0.776467	28.931000
15.278120	0.775463	28.977000
15.302368	0.775068	29.023000
15.327779	0.772170	29.069000
15.353030	0.768366	29.115000
15.441298	0.765503	29.162000
15.523941	0.733352	29.324000
15.548667	0.728083	29.475000
15.573612	0.721688	29.522000
15.598492	0.715325	29.569000
15.623399	0.707535	29.615000
15.648644	0.699424	29.662000
15.673796	0.694077	29.708000
15.699282	0.686247	29.754000
15.724357	0.679189	29.801000
15.750015	0.671025	29.847000
15.774912	0.665940	29.893000
15.800168	0.658118	29.939000
15.825086	0.650480	29.985000
15.849978	0.644064	30.032000
15.874398	0.633038	30.079000
15.899577	0.625822	30.125000
15.924668	0.617639	30.172000
15.950473	0.609877	30.218000
16.037246	0.601744	30.265000
16.119775	0.556791	30.425000
16.144176	0.551341	30.577000
16.168990	0.542547	30.623000
16.194101	0.535210	30.669000
16.219768	0.528784	30.715000
16.245025	0.522173	30.762000
16.270064	0.514956	30.808000
16.295212	0.507394	30.855000
16.320475	0.500267	30.901000
16.345846	0.492880	30.947000
16.370187	0.487895	30.993000
16.395018	0.482385	31.040000
16.420045	0.475809	31.085000
16.445502	0.469878	31.133000
16.470713	0.462924	31.179000
16.495571	0.458391	31.225000
16.521119	0.452720	31.272000
16.546589	0.448523	31.318000
16.633359	0.445704	31.365000
16.830401	0.406131	31.525000
16.855001	0.402976	31.888000
16.879589	0.399918	31.935000
16.904558	0.398413	31.980000
16.930413	0.396325	32.027000
16.955315	0.391758	32.073000
16.980647	0.390924	32.120000
17.005722	0.388235	32.166000
17.030814	0.388525	32.213000
17.056400	0.386646	32.259000
17.081323	0.384942	32.306000
17.106539	0.384662	32.352000
17.130997	0.383517	32.399000
17.156128	0.385022	32.445000
17.355091	0.386980	32.491000
17.380377	0.409824	32.858000
17.405923	0.412123	32.905000
17.430502	0.413137	32.951000
17.456107	0.415485	32.997000
17.481270	0.415864	33.044000
17.505905	0.416289	33.090000
17.530166	0.417233	33.136000
17.555051	0.418193	33.181000
17.580228	0.418193	33.227000
17.605404	0.417374	33.274000
17.630886	0.418073	33.320000
17.656165	0.415305	33.367000
17.680969	0.414421	33.412000
17.706250	0.413780	33.458000
17.730428	0.411702	33.505000
17.824026	0.410317	33.551000
17.907032	0.396884	33.725000
17.932205	0.394870	33.877000
17.956957	0.393122	33.923000
17.981552	0.394026	33.969000
18.006079	0.393132	34.015000
18.030941	0.393122	34.061000
18.056911	0.393926	34.108000
18.082071	0.392832	34.154000
18.107574	0.393766	34.200000
18.132559	0.392902	34.246000
18.157714	0.393122	34.292000
18.182954	0.391908	34.339000
18.207032	0.392397	34.385000
18.231633	0.391578	34.431000
18.256783	0.389669	34.477000
18.282340	0.387730	34.524000
18.306831	0.382892	34.570000
18.332930	0.380593	34.616000
18.420381	0.374232	34.663000
18.502288	0.322677	34.825000
18.527227	0.312306	34.977000
18.552093	0.299538	35.023000
18.577454	0.286595	35.069000
18.602241	0.273342	35.115000
18.627807	0.259149	35.161000
18.652732	0.245545	35.208000
18.678065	0.232883	35.254000
18.703280	0.221232	35.301000
18.728716	0.206618	35.347000
18.753583	0.194667	35.393000
18.778019	0.180744	35.440000
18.803117	0.164023	35.486000
18.828493	0.148654	35.533000
18.853616	0.132152	35.579000
18.878901	0.116172	35.625000
18.903810	0.100017	35.671000
18.929125	0.085824	35.718000
19.016621	0.070875	35.764000
19.098215	-0.006664	35.924000
19.123415	-0.016448	36.077000
19.148363	-0.028782	36.123000
19.173315	-0.038690	36.169000
19.198807	-0.048395	36.215000
19.224243	-0.056675	36.262000
19.249007	-0.064136	36.309000
19.274902	-0.074170	36.356000
19.299159	-0.083060	36.402000
19.323848	-0.093365	36.449000
19.349597	-0.102439	36.494000
19.374518	-0.110799	36.541000
19.399762	-0.121549	36.588000
19.425106	-0.129379	36.634000
19.450653	-0.139689	36.680000
19.475456	-0.146785	36.727000
19.500767	-0.155684	36.773000
19.525984	-0.163444	36.819000
19.611862	-0.173091	36.866000
19.808618	-0.251425	37.025000
19.833583	-0.254934	37.390000
19.859102	-0.258883	37.436000
19.883889	-0.261175	37.481000
19.909394	-0.265243	37.528000
19.934947	-0.268351	37.574000
19.959546	-0.271334	37.621000
19.984942	-0.274887	37.667000
20.009304	-0.276483	37.714000
20.034565	-0.279366	37.760000
20.059565	-0.280262	37.806000
20.084289	-0.280858	37.851000
20.110059	-0.282745	37.898000
20.134810	-0.284026	37.944000
20.333550	-0.285122	37.991000
20.358717	-0.285496	38.357000
20.383704	-0.285937	38.404000
20.408460	-0.286017	38.450000
20.432751	-0.284571	38.496000
20.458005	-0.284661	38.542000
20.482907	-0.283455	38.588000
20.508708	-0.283385	38.634000
20.533587	-0.284931	38.681000
20.558708	-0.284206	38.727000
20.584067	-0.284791	38.773000
20.609167	-0.283946	38.819000
20.633752	-0.283926	38.866000
20.658191	-0.283184	38.911000
20.683164	-0.282584	38.958000
20.708608	-0.282293	39.004000
20.803280	-0.280162	39.051000
20.885787	-0.267960	39.225000
20.910216	-0.261415	39.377000
20.935161	-0.257517	39.423000
20.960695	-0.253043	39.470000
20.985745	-0.249064	39.515000
21.010846	-0.246396	39.562000
21.036290	-0.241252	39.608000
21.061277	-0.240526	39.654000
21.085996	-0.240305	39.700000
21.110991	-0.240576	39.747000
21.135372	-0.238134	39.793000
21.160660	-0.235441	39.839000
21.185851	-0.234886	39.885000
21.210722	-0.233339	39.931000
21.235749	-0.233479	39.978000
21.261127	-0.231328	40.024000
21.286391	-0.230082	40.070000
21.311658	-0.227914	40.117000
21.399785	-0.225347	40.163000
21.480623	-0.220827	40.325000
21.505945	-0.217799	40.477000
21.531379	-0.216674	40.523000
21.556041	-0.212955	40.569000
21.581745	-0.209096	40.615000
21.606439	-0.205828	40.661000
21.630761	-0.198267	40.707000
21.655744	-0.192671	40.753000
21.680890	-0.186055	40.800000
21.705967	-0.179417	40.846000
21.731305	-0.172560	40.893000
21.757043	-0.165188	40.940000
21.782052	-0.158408	40.986000
21.807807	-0.149321	41.033000
21.832792	-0.142876	41.079000
21.857855	-0.133522	41.126000
21.882054	-0.124901	41.171000
21.906810	-0.117624	41.217000
21.994874	-0.108770	41.264000
22.077014	-0.064966	41.425000
22.102568	-0.056245	41.577000
22.127704	-0.048775	41.623000
22.153290	-0.043178	41.670000
22.178073	-0.037307	41.716000
22.202610	-0.034768	41.763000
22.227164	-0.026638	41.809000
22.252099	-0.019612	41.855000
22.277779	-0.013780	41.902000
22.302893	-0.008558	41.947000
22.328064	-0.002007	41.993000
22.353634	0.009128	42.041000
22.378980	0.017448	42.087000
22.404297	0.028007	42.133000
22.428556	0.037562	42.180000
22.452977	0.045235	42.226000
22.477580	0.052782	42.271000
22.503546	0.059738	42.318000
22.590361	0.067006	42.364000
22.788153	0.141350	42.524000
22.813143	0.149248	42.889000
22.838203	0.158988	42.934000
22.863074	0.165975	42.981000
22.887707	0.176319	43.027000
22.912412	0.184101	43.073000
22.925873	0.197099	43.120000
22.962300	0.200646	43.166000
22.987721	0.207853	43.212000
23.012777	0.217373	43.257000
23.038422	0.223624	43.304000
23.063399	0.230410	43.350000
23.088639	0.240745	43.397000
23.112919	0.248229	43.443000
23.311531	0.257105	43.489000
23.336170	0.325105	43.856000
23.361139	0.334668	43.902000
23.386821	0.343674	43.948000
23.411973	0.354878	43.994000
23.436913	0.365782	44.041000
23.462461	0.374956	44.087000
23.487816	0.384237	44.134000
23.512730	0.394046	44.180000
23.536836	0.402796	44.226000
23.561735	0.411311	44.272000
23.587257	0.417884	44.319000
23.612098	0.426434	44.365000
23.637240	0.432981	44.411000
23.662242	0.439837	44.458000
23.687968	0.444364	44.504000
23.783030	0.448646	44.549000
23.864330	0.460081	44.725000
23.889033	0.459296	44.877000
23.914494	0.460495	44.923000
23.940060	0.459066	44.970000
23.965095	0.458376	45.015000
23.989968	0.458687	45.062000
24.015070	0.456837	45.108000
24.039260	0.456598	45.154000
24.064173	0.453689	45.200000
24.089653	0.456078	45.246000
24.114344	0.454368	45.292000
24.140157	0.452635	45.339000
24.165577	0.454438	45.385000
24.190495	0.452985	45.431000
24.215651	0.453354	45.477000
24.239965	0.452685	45.524000
24.264978	0.453344	45.570000
24.289417	0.451951	45.616000
24.378204	0.450995	45.662000
24.460328	0.460172	45.825000
24.485703	0.460410	45.977000
24.511079	0.462699	46.023000
24.536429	0.462834	46.070000
24.561733	0.465274	46.117000
24.586654	0.469734	46.163000
24.611041	0.471636	46.210000
24.635922	0.474754	46.256000
24.661641	0.477276	46.302000
24.686706	0.480069	46.349000
24.712046	0.483117	46.395000
24.737380	0.486565	46.441000
24.762649	0.492190	46.487000
24.788037	0.495128	46.534000
24.812805	0.498706	46.581000
24.837536	0.501369	46.627000
24.862029	0.503751	46.673000
24.886674	0.510237	46.719000
24.973898	0.514005	46.766000
25.056559	0.554829	46.925000
25.081803	0.562627	47.077000
25.106052	0.571290	47.122000
25.130977	0.580444	47.170000
25.156190	0.590609	47.216000
25.180729	0.600638	47.262000
25.206140	0.608291	47.308000
25.231171	0.617489	47.354000
25.256523	0.629190	47.400000
25.282026	0.638389	47.446000
25.306765	0.650370	47.493000
25.331123	0.657777	47.539000
25.355359	0.668843	47.585000
25.380971	0.678235	47.631000
25.406373	0.686630	47.677000
25.431717	0.697970	47.723000
25.456934	0.708688	47.770000
25.482063	0.721137	47.817000
25.569629	0.730272	47.863000
25.767288	0.865739	48.025000
25.792570	0.880162	48.389000
25.816875	0.892871	48.436000
25.842198	0.906674	48.482000
25.866714	0.920332	48.529000
25.892150	0.933945	48.574000
25.916991	0.948059	48.621000
25.942325	0.960875	48.667000
25.967857	0.977651	48.713000
25.992790	0.991475	48.759000
26.018324	1.004102	48.806000
26.043120	1.016789	48.852000
26.067139	1.030097	48.899000
26.091860	1.043429	48.944000
26.290727	1.057362	48.990000
26.315787	1.153880	49.357000
26.340858	1.166309	49.404000
26.366694	1.178472	49.450000
26.391696	1.193630	49.496000
26.416632	1.206791	49.542000
26.440835	1.220585	49.588000
26.465282	1.235692	49.634000
26.490689	1.248599	49.680000
26.515634	1.262512	49.727000
26.540705	1.275035	49.772000
26.566216	1.287213	49.818000
26.591556	1.299017	49.866000
26.617182	1.310320	49.912000
26.641767	1.322790	49.958000
26.666248	1.332754	50.004000
26.760705	1.343519	50.050000
26.843535	1.413991	50.225000
26.868806	1.426444	50.377000
26.893890	1.438375	50.423000
26.919101	1.449345	50.470000
26.943984	1.461157	50.517000
26.968723	1.468774	50.562000
26.993291	1.478818	50.609000
27.018464	1.486876	50.655000
27.043424	1.492677	50.701000
27.068593	1.499322	50.747000
27.093837	1.504138	50.793000
27.119357	1.510298	50.839000
27.144346	1.513196	50.885000
27.169407	1.515548	50.932000
27.194663	1.518906	50.979000
27.218772	1.521649	51.025000
27.243795	1.525938	51.072000
27.269532	1.526253	51.118000
27.356136	1.525688	51.164000
27.439475	1.534575	51.325000
27.464164	1.536020	51.477000
27.489149	1.538055	51.523000
27.513882	1.541068	51.570000
27.539204	1.545547	51.616000
27.564181	1.548339	51.662000
27.589347	1.552413	51.709000
27.614804	1.558603	51.755000
27.639956	1.564750	51.801000
27.664988	1.571611	51.847000
27.689919	1.577603	51.893000
27.714360	1.583255	51.940000
27.739420	1.589457	51.987000
27.764397	1.595845	52.032000
27.790071	1.602611	52.078000
27.815050	1.607528	52.125000
27.840365	1.613881	52.171000
27.865125	1.619840	52.218000
27.952809	1.628131	52.264000
28.034478	1.684206	52.425000
28.059321	1.693601	52.576000
28.084338	1.704834	52.623000
28.109025	1.713964	52.669000
28.134691	1.725628	52.714000
28.159764	1.735698	52.760000
28.185039	1.747514	52.807000
28.210212	1.758299	52.854000
28.234845	1.768653	52.900000
28.259167	1.778593	52.946000
28.283954	1.786475	52.992000
28.309258	1.796305	53.038000
28.334352	1.807225	53.083000
28.359388	1.815968	53.130000
28.384409	1.826324	53.176000
28.409550	1.835027	53.222000
28.435051	1.843935	53.269000
28.459231	1.853089	53.315000
28.548655	1.862143	53.361000
28.745121	1.967975	53.525000
28.769863	1.977719	53.890000
28.795447	1.985900	53.936000
28.820801	1.995126	53.982000
28.846041	2.003046	54.028000
28.870972	2.014810	54.075000
28.896721	2.023904	54.121000
28.921518	2.034389	54.168000
28.947336	2.044069	54.214000
28.971475	2.053694	54.260000
28.995888	2.065002	54.306000
29.021057	2.074054	54.353000
29.046030	2.085417	54.399000
29.071330	2.093367	54.445000
29.270293	2.103651	54.491000
29.295318	2.175010	54.858000
29.320525	2.183032	54.904000
29.345723	2.192621	54.951000
29.371011	2.202936	54.996000
29.395126	2.210798	55.043000
29.419988	2.218677	55.090000
29.445193	2.225753	55.136000
29.470093	2.234451	55.182000
29.495531	2.240783	55.228000
29.520916	2.250161	55.274000
29.546121	2.256102	55.321000
29.571642	2.263649	55.368000
29.596851	2.271131	55.414000
29.620704	2.278228	55.460000
29.645902	2.287097	55.506000
29.739362	2.295180	55.553000
29.822103	2.334947	55.724000
29.847103	2.340958	55.877000
29.871446	2.346298	55.923000
29.896806	2.353966	55.970000
29.922052	2.360056	56.015000
29.947309	2.369304	56.063000
29.972468	2.377798	56.108000
29.998150	2.387140	56.156000
30.023235	2.395332	56.202000
30.048195	2.401034	56.249000
30.073331	2.408734	56.294000
30.098006	2.414655	56.341000
30.122918	2.423296	56.388000
30.148208	2.429587	56.434000
30.172964	2.435844	56.480000
30.198260	2.442585	56.527000
30.223890	2.449253	56.573000
30.248865	2.456329	56.620000
30.335024	2.462470	56.666000
30.417095	2.509120	56.824000
30.441401	2.517879	56.977000
30.466590	2.525190	57.022000
30.492223	2.534062	57.068000
30.517099	2.540323	57.115000
30.542881	2.548393	57.162000
30.568173	2.555180	57.208000
30.593123	2.561042	57.254000
30.617604	2.569103	57.301000
30.642164	2.574684	57.347000
30.667347	2.582885	57.393000
30.692495	2.588361	57.440000
30.718180	2.595318	57.486000
30.742987	2.602006	57.532000
30.768123	2.607647	57.578000
30.792898	2.614664	57.624000
30.818104	2.620219	57.670000
30.842789	2.628796	57.716000
30.931097	2.635398	57.763000
31.012707	2.675476	57.925000
31.037624	2.683259	58.077000
31.062924	2.690495	58.123000
31.088206	2.701171	58.169000
31.113732	2.708022	58.215000
31.138419	2.717401	58.262000
31.163043	2.721926	58.307000
31.187643	2.727251	58.353000
31.212768	2.731665	58.400000
31.238350	2.736479	58.447000
31.263310	2.743166	58.493000
31.288714	2.748130	58.540000
31.313883	2.754937	58.586000
31.339359	2.762839	58.632000
31.364371	2.770176	58.678000
31.388218	2.779395	58.724000
31.413107	2.785186	58.770000
31.438501	2.793103	58.817000
31.525775	2.797708	58.864000
31.723657	2.850392	59.025000
31.748590	2.858227	59.389000
31.773818	2.862724	59.435000
31.798674	2.870256	59.481000
31.823834	2.874169	59.527000
31.848186	2.880272	59.573000
31.872814	2.886222	59.618000
31.897639	2.892459	59.665000
31.922312	2.897956	59.710000
31.947889	2.904028	59.756000
31.973181	2.909320	59.803000
31.998421	2.912070	59.850000
32.023529	2.914742	59.896000
32.048098	2.918560	59.942000
32.246962	2.918850	59.987000
32.270926	2.905043	60.354000
32.296497	2.901351	60.401000
32.321533	2.894533	60.447000
32.347242	2.891335	60.493000
32.371983	2.885128	60.539000
32.397308	2.879812	60.585000
32.422244	2.871150	60.632000
32.446881	2.867343	60.678000
32.471691	2.862276	60.724000
32.495944	2.857148	60.770000
32.521783	2.852260	60.816000
32.546716	2.845625	60.863000
32.571949	2.840023	60.909000
32.597673	2.834765	60.955000
32.622448	2.829154	61.001000
32.718326	2.822989	61.048000
32.799713	2.786451	61.225000
32.824923	2.779069	61.377000
32.849579	2.772113	61.422000
32.874915	2.767098	61.468000
32.900459	2.759951	61.515000
32.925365	2.758484	61.561000
32.951150	2.755166	61.608000
32.975465	2.751678	61.654000
32.999594	2.750722	61.699000
33.024877	2.747394	61.746000
33.049983	2.747164	61.792000
33.075449	2.748160	61.839000
33.100501	2.748290	61.885000
33.126272	2.750512	61.931000
33.151116	2.749717	61.977000
33.176233	2.755106	62.024000
33.200171	2.756633	62.069000
33.225085	2.760251	62.116000
33.313871	2.761297	62.161000
33.395661	2.773574	62.325000
33.421501	2.774175	62.477000
33.446553	2.773594	62.524000
33.471908	2.775531	62.570000
33.497190	2.773249	62.617000
33.521439	2.774770	62.662000
33.546138	2.772638	62.709000
33.570986	2.773284	62.754000
33.596280	2.772628	62.801000
33.621451	2.771492	62.847000
33.646645	2.770006	62.893000
33.671889	2.765782	62.940000
33.697183	2.763965	62.985000
33.722174	2.762044	63.032000
33.746215	2.759400	63.077000
33.770668	2.757994	63.123000
33.795627	2.755952	63.170000
33.821010	2.755287	63.216000
33.908816	2.755127	63.262000
33.991848	2.767349	63.425000
34.017249	2.772447	63.577000
34.042213	2.776206	63.623000
34.066258	2.781261	63.669000
34.090580	2.786191	63.714000
34.116116	2.792241	63.761000
34.141725	2.795760	63.807000
34.166481	2.799869	63.853000
34.191740	2.804493	63.900000
34.217138	2.808702	63.946000
34.242282	2.813101	63.992000
34.267215	2.814594	64.038000
34.292163	2.818470	64.085000
34.304968	2.822328	64.132000
34.341902	2.824606	64.178000
34.366839	2.829053	64.223000
34.392355	2.832317	64.270000
34.417634	2.838158	64.317000
34.505072	2.842750	64.363000
34.702675	2.896023	64.525000
34.727654	2.906018	64.889000
34.752729	2.916151	64.935000
34.777320	2.925346	64.981000
34.801722	2.932047	65.027000
34.826893	2.941858	65.074000
34.852237	2.947719	65.120000
34.877642	2.955306	65.167000
34.902794	2.961526	65.212000
34.928311	2.966910	65.259000
34.953782	2.972195	65.306000
34.979033	2.975709	65.352000
35.004458	2.982267	65.398000
35.028219	2.985199	65.445000
35.227036	3.005673	65.491000
35.265265	3.006547	65.882000
35.290448	3.007712	65.928000
35.315181	3.010321	65.974000
35.340025	3.009950	66.020000
35.365154	3.013904	66.067000
35.389952	3.013944	66.113000
35.415196	3.016561	66.160000
35.440256	3.018271	66.205000
35.466518	3.023199	66.252000
35.491401	3.027140	66.298000
35.516422	3.031515	66.345000
35.541443	3.036449	66.391000
35.565803	3.042300	66.437000
35.590821	3.047970	66.483000
35.615458	3.053175	66.530000
35.700241	3.060336	66.576000
35.778766	3.092572	66.730000
35.804256	3.099989	66.877000
35.829480	3.108072	66.923000
35.854363	3.116335	66.970000
35.879876	3.123352	67.015000
35.904179	3.132810	67.062000
35.928781	3.137881	67.108000
35.953488	3.146819	67.154000
35.978931	3.151153	67.201000
36.004594	3.157825	67.247000
36.029696	3.163325	67.293000
36.055658	3.169185	67.340000
36.080268	3.178069	67.386000
36.105674	3.185360	67.433000
36.130591	3.193088	67.479000
36.155405	3.201636	67.526000
36.180637	3.208873	67.572000
36.205121	3.217426	67.619000
36.291844	3.222230	67.664000
36.375363	3.243279	67.825000
36.400046	3.244039	67.976000
36.424864	3.245979	68.023000
36.449758	3.248189	68.069000
36.474680	3.249694	68.116000
36.499286	3.254422	68.162000
36.524488	3.256630	68.207000
36.549712	3.261696	68.254000
36.575164	3.264891	68.300000
36.600231	3.269388	68.347000
36.625106	3.274759	68.393000
36.650485	3.278933	68.439000
36.675076	3.283969	68.486000
36.700304	3.289760	68.532000
36.725210	3.296018	68.579000
36.750600	3.303174	68.625000
36.775214	3.312116	68.671000
36.800397	3.320950	68.716000
36.887980	3.328547	68.763000
36.970416	3.383846	68.925000
36.995157	3.391436	69.077000
37.020286	3.400627	69.123000
37.045579	3.409962	69.169000
37.070704	3.417523	69.216000
37.095883	3.426978	69.263000
37.121400	3.434573	69.309000
37.146187	3.443489	69.354000
37.171592	3.448710	69.401000
37.195968	3.454008	69.447000
37.220328	3.458086	69.492000
37.245399	3.461254	69.539000
37.270517	3.465757	69.586000
37.295438	3.465667	69.631000
37.320778	3.465307	69.677000
37.346033	3.464662	69.723000
37.371043	3.462209	69.769000
37.396026	3.462814	69.816000
37.483848	3.461533	69.862000
37.682361	3.459626	70.024000
37.707367	3.460097	70.389000
37.732400	3.462720	70.436000
37.756983	3.467283	70.483000
37.782573	3.469686	70.529000
37.807556	3.474290	70.576000
37.832630	3.477228	70.621000
37.857260	3.481407	70.666000
37.882896	3.485520	70.713000
37.908382	3.487892	70.759000
37.932454	3.494939	70.806000
37.957829	3.498928	70.853000
37.982827	3.505725	70.899000
38.007333	3.509894	70.945000
38.206519	3.515899	70.991000
38.232282	3.557223	71.359000
38.257015	3.560902	71.405000
38.282239	3.565216	71.451000
38.307914	3.568084	71.498000
38.332720	3.571107	71.543000
38.357948	3.576097	71.591000
38.382889	3.579119	71.637000
38.407338	3.584024	71.684000
38.432720	3.586941	71.730000
38.458144	3.592872	71.776000
38.483227	3.596932	71.822000
38.508045	3.600230	71.869000
38.533350	3.603938	71.915000
38.558706	3.605559	71.961000
38.582797	3.609098	72.007000
38.675513	3.611275	72.053000
38.758971	3.631079	72.225000
38.783877	3.632870	72.377000
38.809374	3.633977	72.423000
38.833781	3.634437	72.470000
38.858299	3.634047	72.516000
38.883408	3.633806	72.562000
38.907926	3.632570	72.608000
38.933182	3.632680	72.654000
38.958710	3.630759	72.699000
38.984027	3.629602	72.746000
39.008434	3.628166	72.792000
39.033355	3.624297	72.838000
39.058599	3.623972	72.885000
39.082706	3.622316	72.931000
39.108426	3.621199	72.977000
39.133824	3.619188	73.024000
39.159049	3.614879	73.070000
39.183659	3.614122	73.115000
39.272030	3.610029	73.162000
39.354823	3.577148	73.325000
39.380217	3.569801	73.477000
39.404266	3.561172	73.524000
39.429571	3.553985	73.571000
39.455038	3.545613	73.616000
39.479518	3.537950	73.662000
39.504750	3.528422	73.709000
39.530620	3.522761	73.755000
39.556080	3.514508	73.802000
39.580382	3.506306	73.848000
39.604639	3.497793	73.894000
39.630271	3.491992	73.940000
39.654589	3.485106	73.987000
39.680505	3.477909	74.033000
39.705715	3.476042	74.079000
39.730498	3.473264	74.125000
39.755826	3.469416	74.172000
39.781624	3.467434	74.218000
39.867920	3.465918	74.265000
39.949807	3.469435	74.425000
39.974620	3.468965	74.577000
40.000460	3.470311	74.624000
40.025554	3.471838	74.670000
40.050372	3.472422	74.716000
40.075812	3.473234	74.763000
40.101751	3.472793	74.809000
40.125977	3.474481	74.855000
40.150068	3.476241	74.901000
40.175624	3.475686	74.947000
40.200514	3.476872	74.994000
40.225393	3.477078	75.040000
40.251313	3.479990	75.086000
40.276673	3.481036	75.132000
40.301559	3.481256	75.180000
40.326500	3.484084	75.225000
40.352508	3.481687	75.272000
40.376719	3.482102	75.319000
40.463519	3.482683	75.365000
40.659539	3.483178	75.525000
40.685525	3.484404	75.890000
40.710381	3.482633	75.935000
40.735555	3.483789	75.981000
40.760158	3.482342	76.027000
40.786166	3.482152	76.073000
40.810938	3.483638	76.120000
40.835436	3.484164	76.166000
40.860976	3.483629	76.213000
40.885909	3.482582	76.259000
40.910177	3.483679	76.306000
40.935825	3.484764	76.352000
40.961399	3.485189	76.399000
40.987004	3.485960	76.445000
41.185875	3.486191	76.491000
41.211599	3.472692	76.858000
41.235825	3.467687	76.905000
41.260262	3.463324	76.951000
41.285453	3.459495	76.997000
41.310259	3.454660	77.043000
41.335441	3.450494	77.090000
41.360946	3.442622	77.136000
41.385968	3.436401	77.182000
41.410854	3.426947	77.228000
41.436609	3.419274	77.275000
41.462084	3.413808	77.322000
41.486671	3.406018	77.368000
41.511281	3.400354	77.414000
41.536141	3.393338	77.460000
41.561504	3.388801	77.507000
41.654466	3.385288	77.553000
41.737386	3.360148	77.725000
41.761823	3.354880	77.877000
41.787132	3.347559	77.923000
41.812419	3.344410	77.970000
41.836894	3.337930	78.016000
41.862350	3.333402	78.063000
41.888016	3.327620	78.109000
41.913114	3.321189	78.155000
41.938089	3.314572	78.201000
41.963644	3.306511	78.247000
41.987452	3.300734	78.293000
42.011931	3.294768	78.339000
42.037594	3.290295	78.385000
42.062742	3.286237	78.432000
42.087678	3.282824	78.477000
42.112657	3.281351	78.524000
42.138159	3.277667	78.570000
42.162803	3.276942	78.616000
42.250913	3.277407	78.661000
42.332366	3.274868	78.825000
42.358094	3.275279	78.977000
42.383280	3.274898	79.024000
42.408025	3.273438	79.070000
42.432965	3.271255	79.116000
42.459112	3.270651	79.162000
42.483196	3.270391	79.209000
42.508390	3.271585	79.254000
42.532946	3.274282	79.301000
42.557449	3.275802	79.347000
42.582627	3.280334	79.393000
42.608659	3.285878	79.439000
42.633438	3.287836	79.485000
42.658217	3.294557	79.531000
42.683311	3.301205	79.578000
42.709324	3.308401	79.624000
42.733239	3.315387	79.670000
42.757975	3.322443	79.716000
42.846228	3.329400	79.762000
42.928498	3.369443	79.925000
42.953500	3.376709	80.077000
42.978713	3.384034	80.123000
43.004572	3.390612	80.170000
43.029447	3.396644	80.216000
43.053762	3.402365	80.262000
43.079424	3.410626	80.309000
43.104469	3.418506	80.356000
43.129305	3.427761	80.402000
43.154638	3.436611	80.449000
43.179943	3.446055	80.495000
43.205168	3.457714	80.541000
43.230181	3.467353	80.587000
43.255022	3.477648	80.633000
43.280819	3.486446	80.680000
43.304580	3.496991	80.725000
43.329897	3.506670	80.772000
43.354726	3.516249	80.818000
43.441319	3.526474	80.864000
43.639260	3.630002	81.025000
43.664093	3.640622	81.389000
43.689767	3.649806	81.436000
43.715384	3.660191	81.483000
43.739894	3.669820	81.528000
43.763874	3.676466	81.574000
43.789449	3.688412	81.621000
43.814781	3.695787	81.667000
43.839526	3.704673	81.714000
43.865584	3.713908	81.760000
43.890705	3.721575	81.806000
43.915592	3.731914	81.853000
43.940467	3.738930	81.899000
44.152550	3.747161	81.945000
44.177648	3.801934	82.338000
44.202707	3.809456	82.384000
44.228017	3.815368	82.430000
44.253787	3.821109	82.477000
44.278685	3.828046	82.523000
44.303503	3.832803	82.570000
44.329119	3.839879	82.616000
44.354225	3.843652	82.662000
44.378462	3.847789	82.709000
44.403568	3.853861	82.755000
44.428585	3.857385	82.801000
44.453603	3.862112	82.847000
44.478516	3.865915	82.892000
44.503964	3.874306	82.938000
44.527717	3.879407	82.984000
44.551840	3.885704	83.029000
44.636050	3.892421	83.075000
44.714925	3.930977	83.231000
44.740138	3.939461	83.377000
44.765255	3.947003	83.423000
44.791037	3.953839	83.469000
44.816127	3.961506	83.515000
44.840515	3.967438	83.561000
44.865889	3.974013	83.607000
44.890903	3.980404	83.654000
44.915501	3.988257	83.701000
44.940161	3.995419	83.747000
44.966312	3.999458	83.793000
44.991145	4.006285	83.839000
45.016412	4.009583	83.886000
45.042743	4.015083	83.933000
45.068268	4.016979	83.978000
45.092578	4.020728	84.025000
45.117423	4.024461	84.071000
45.142943	4.027715	84.117000
45.229724	4.032825	84.164000
45.312317	4.053874	84.325000
45.337404	4.058324	84.476000
45.362875	4.062217	84.523000
45.387546	4.066546	84.569000
45.411837	4.072893	84.615000
45.436997	4.075235	84.662000
45.462256	4.081075	84.707000
45.486786	4.085980	84.754000
45.512859	4.091586	84.801000
45.538057	4.098600	84.848000
45.562617	4.103251	84.893000
45.588342	4.109927	84.940000
45.613524	4.112859	84.986000
45.638607	4.118116	85.032000
45.662199	4.122133	85.078000
45.687420	4.123519	85.124000
45.712837	4.125104	85.171000
45.738031	4.123619	85.217000
45.825365	4.123519	85.263000
45.908600	4.097920	85.425000
45.933970	4.090079	85.577000
45.958369	4.085769	85.623000
45.982718	4.079739	85.670000
46.008050	4.075685	85.715000
46.033375	4.069524	85.762000
46.058016	4.064659	85.808000
46.084113	4.060115	85.855000
46.108819	4.054575	85.901000
46.133629	4.050606	85.947000
46.158842	4.045621	85.993000
46.184340	4.041268	86.040000
46.208339	4.037104	86.086000
46.232830	4.033365	86.132000
46.258527	4.030127	86.178000
46.284025	4.025012	86.224000
46.308723	4.021624	86.271000
46.334663	4.018891	86.317000
46.421217	4.016599	86.364000
46.619734	4.009056	86.525000
46.644475	4.008115	86.890000
46.656922	4.010193	86.937000
46.694648	4.010888	86.983000
46.719588	4.013320	87.029000
46.743780	4.015692	87.075000
46.769423	4.017724	87.121000
46.794890	4.020397	87.168000
46.820572	4.020767	87.215000
46.845409	4.021133	87.260000
46.870234	4.022749	87.307000
46.895493	4.024931	87.353000
46.919719	4.029105	87.400000
47.132213	4.030401	87.446000
47.156942	4.054990	87.837000
47.183043	4.059119	87.883000
47.207546	4.065040	87.930000
47.232816	4.068758	87.976000
47.257972	4.073462	88.022000
47.282509	4.078782	88.069000
47.307553	4.084753	88.116000
47.333078	4.091868	88.162000
47.358260	4.097435	88.209000
47.383312	4.105048	88.255000
47.408464	4.111574	88.301000
47.434323	4.116591	88.347000
47.458894	4.123267	88.393000
47.483262	4.128924	88.439000
47.508372	4.135371	88.486000
47.532640	4.140518	88.532000
47.617800	4.146429	88.578000
47.695353	4.178428	88.733000
47.721138	4.186179	88.877000
47.745614	4.193699	88.923000
47.770339	4.201201	88.969000
47.795860	4.206527	89.015000
47.820082	4.214008	89.061000
47.845169	4.219740	89.109000
47.870912	4.225527	89.155000
47.896298	4.232563	89.202000
47.921266	4.239030	89.249000
47.946302	4.244018	89.295000
47.972280	4.248894	89.341000
47.997539	4.254866	89.387000
48.022007	4.259594	89.434000
48.047766	4.265560	89.480000
48.071742	4.272402	89.526000
48.096425	4.278498	89.573000
48.122399	4.285390	89.619000
48.208258	4.292186	89.666000
48.291539	4.340736	89.825000
48.316487	4.348424	89.976000
48.340971	4.356587	90.023000
48.365757	4.364094	90.069000
48.390310	4.372086	90.116000
48.415684	4.382450	90.162000
48.441616	4.388892	90.209000
48.466891	4.397145	90.255000
48.492181	4.406253	90.302000
48.516945	4.414236	90.348000
48.542638	4.422284	90.394000
48.566388	4.430161	90.440000
48.591417	4.437018	90.487000
48.616857	4.444035	90.532000
48.641590	4.450501	90.579000
48.666941	4.458019	90.626000
48.692389	4.463124	90.672000
48.717690	4.468673	90.718000
48.804287	4.476181	90.764000
48.923449	4.418661	90.925000
48.948451	4.458254	91.144000
48.973461	4.485285	91.191000
48.998202	4.502165	91.238000
49.023065	4.513532	91.284000
49.048648	4.519160	91.330000
49.074295	4.522703	91.376000
49.099066	4.524498	91.423000
49.124990	4.523828	91.470000
49.150204	4.523114	91.515000
49.174706	4.519641	91.563000
49.200569	4.518246	91.609000
49.225259	4.514167	91.656000
49.249581	4.510458	91.702000
49.274437	4.503842	91.748000
49.300496	4.496626	91.794000
49.325755	4.488994	91.841000
49.445744	4.479970	91.888000
49.597112	4.404691	92.108000
49.622148	4.398690	92.390000
49.647846	4.391138	92.436000
49.672625	4.385387	92.483000
49.697934	4.378856	92.529000
49.723501	4.374803	92.575000
49.748007	4.371769	92.620000
49.773443	4.366640	92.667000
49.798557	4.362851	92.713000
49.822890	4.359012	92.760000
49.847381	4.356601	92.806000
49.873217	4.354018	92.853000
49.898419	4.349103	92.899000
49.922975	4.343783	92.944000
50.122495	4.337147	92.990000
50.147678	4.285618	93.358000
50.172099	4.281061	93.405000
50.197443	4.277242	93.450000
50.221750	4.274195	93.496000
50.246049	4.270332	93.542000
50.270982	4.267469	93.588000
50.296618	4.264384	93.634000
50.321708	4.263465	93.680000
50.346648	4.263060	93.727000
50.371942	4.263160	93.773000
50.397278	4.265399	93.819000
50.422438	4.267199	93.866000
50.447152	4.269758	93.912000
50.472476	4.274376	93.958000
50.497179	4.278058	94.005000
50.591743	4.282115	94.052000
50.674110	4.312514	94.224000
50.698850	4.318355	94.377000
50.723783	4.324425	94.423000
50.747986	4.330907	94.469000
50.774340	4.335410	94.516000
50.798970	4.338133	94.562000
50.823630	4.339169	94.608000
50.848205	4.338518	94.654000
50.874632	4.338223	94.699000
50.900184	4.339039	94.746000
50.924241	4.340596	94.793000
50.949024	4.342298	94.839000
50.974498	4.343553	94.886000
50.999335	4.347062	94.933000
51.024863	4.352651	94.979000
51.049846	4.356971	95.025000
51.074725	4.361455	95.071000
51.099500	4.367026	95.117000
51.187687	4.372120	95.163000
51.269086	4.391643	95.325000
51.294629	4.393100	95.477000
51.319170	4.396298	95.523000
51.344983	4.398135	95.570000
51.370745	4.402568	95.616000
51.395233	4.406167	95.663000
51.420930	4.410296	95.709000
51.445874	4.413234	95.756000
51.470869	4.418930	95.802000
51.495402	4.423974	95.848000
51.520373	4.428168	95.894000
51.545729	4.431352	95.941000
51.570677	4.432477	95.988000
51.595955	4.436741	96.034000
51.621733	4.439990	96.080000
51.646201	4.443153	96.127000
51.671837	4.446201	96.173000
51.697242	4.445950	96.219000
51.783336	4.446681	96.265000
51.865295	4.448783	96.425000
51.890116	4.448843	96.577000
51.915721	4.452322	96.624000
51.940927	4.454584	96.670000
51.965795	4.457481	96.716000
51.990827	4.459659	96.762000
52.016075	4.462090	96.808000
52.039137	4.466324	96.854000
52.064669	4.469302	96.900000
52.090470	4.471574	96.946000
52.115587	4.475062	96.992000
52.140086	4.478446	97.039000
52.165795	4.482981	97.084000
52.190739	4.488450	97.131000
52.214612	4.494181	97.177000
52.239871	4.499016	97.223000
52.265200	4.506002	97.270000
52.290071	4.512968	97.316000
52.378573	4.519719	97.361000
52.575826	4.601170	97.525000
52.601697	4.609080	97.890000
52.627471	4.616872	97.937000
52.653018	4.624592	97.983000
52.677759	4.632524	98.029000
52.702749	4.640574	98.076000
52.728147	4.647010	98.122000
52.751470	4.653613	98.168000
52.777179	4.659214	98.214000
52.802012	4.664685	98.260000
52.826634	4.671218	98.306000
52.852081	4.676154	98.352000
52.877917	4.681276	98.399000
53.089573	4.687878	98.445000
53.114241	4.731141	98.838000
53.139907	4.733459	98.884000
53.165101	4.737506	98.930000
53.190856	4.742112	98.976000
53.214975	4.746712	99.023000
53.240914	4.751246	99.069000
53.266273	4.755640	99.115000
53.290165	4.758303	99.161000
53.314887	4.760445	99.207000
53.339985	4.763372	99.253000
53.365152	4.764729	99.300000
53.390200	4.765654	99.345000
53.416466	4.768077	99.393000
53.441030	4.766606	99.439000
53.465713	4.765090	99.486000
53.491122	4.764879	99.532000
53.574011	4.760665	99.578000
53.652659	4.752011	99.732000
53.677507	4.754724	99.877000
53.703024	4.755540	99.923000
53.728468	4.756130	99.970000
53.753266	4.757822	100.016000
53.778479	4.759109	100.062000
53.803535	4.759984	100.108000
53.828668	4.762216	100.155000
53.853351	4.764678	100.201000
53.877980	4.765539	100.247000
53.902675	4.766726	100.293000
53.928288	4.766686	100.340000
53.953704	4.766025	100.386000
53.979156	4.765650	100.433000
54.004607	4.765664	100.479000
54.029640	4.764343	100.526000
54.041830	4.759398	100.572000
54.080105	4.757792	100.618000
54.166632	4.754915	100.665000
54.248288	4.723313	100.825000
54.274224	4.715923	100.977000
54.299567	4.710082	101.024000
54.324231	4.704594	101.070000
54.349214	4.699172	101.116000
54.374328	4.692625	101.163000
54.398999	4.687519	101.209000
54.424301	4.682771	101.255000
54.449057	4.678958	101.301000
54.473763	4.675975	101.348000
54.499334	4.674481	101.393000
54.524850	4.674380	101.440000
54.550071	4.673686	101.487000
54.574785	4.672855	101.533000
54.600621	4.671982	101.580000
54.625861	4.669432	101.626000
54.649991	4.668689	101.672000
54.674754	4.665859	101.718000
54.761597	4.665335	101.765000
54.844924	4.665406	101.925000
54.870033	4.665990	102.077000
54.894870	4.666619	102.124000
54.920003	4.664936	102.170000
54.945719	4.665416	102.217000
54.969669	4.663146	102.263000
54.995320	4.661102	102.310000
55.020664	4.659284	102.356000
55.045093	4.655761	102.403000
55.070883	4.652128	102.449000
55.096223	4.647290	102.496000
55.121636	4.643033	102.542000
55.146035	4.638635	102.588000
55.171793	4.636376	102.635000
55.197264	4.631883	102.681000
55.220918	4.626061	102.727000
55.246600	4.619760	102.774000
55.271759	4.611996	102.819000
55.357334	4.604185	102.867000
55.555332	4.521707	103.025000
55.580557	4.512333	103.390000
55.605567	4.503910	103.436000
55.631368	4.493645	103.483000
55.655502	4.484512	103.529000
55.679912	4.475083	103.575000
55.705502	4.464163	103.621000
55.730507	4.455389	103.667000
55.755544	4.446681	103.714000
55.781099	4.438783	103.760000
55.805905	4.431516	103.806000
55.830365	4.424225	103.852000
55.854146	4.417229	103.896000
55.879267	4.411102	103.942000
56.077869	4.406588	103.988000
56.103716	4.404550	104.356000
56.128752	4.407133	104.403000
56.153900	4.410226	104.449000
56.179264	4.414250	104.496000
56.204500	4.419865	104.542000
56.229882	4.425090	104.588000
56.253513	4.429435	104.633000
56.278557	4.434980	104.680000
56.303874	4.438633	104.726000
56.328081	4.441657	104.772000
56.353713	4.445635	104.818000
56.379106	4.449188	104.865000
56.404101	4.452311	104.910000
56.429149	4.455730	104.957000
56.454612	4.458927	105.002000
56.549326	4.461550	105.049000
56.631400	4.491888	105.225000
56.656571	4.496602	105.378000
56.681858	4.502624	105.424000
56.707832	4.509070	105.471000
56.732326	4.516101	105.517000
56.757209	4.524745	105.563000
56.782027	4.531414	105.609000
56.806963	4.540038	105.655000
56.831431	4.550332	105.702000
56.856526	4.559198	105.748000
56.882473	4.569867	105.794000
56.907186	4.582545	105.840000
56.932469	4.593034	105.886000
56.958328	4.604034	105.933000
56.982845	4.615878	105.979000
57.006972	4.626422	106.025000
57.032189	4.637300	106.072000
57.057529	4.649939	106.118000
57.143956	4.661612	106.164000
57.227644	4.730699	106.325000
57.252443	4.740986	106.477000
57.278021	4.751660	106.523000
57.302508	4.762435	106.570000
57.326388	4.771775	106.616000
57.352074	4.781544	106.662000
57.377475	4.791839	106.708000
57.402274	4.801908	106.755000
57.428309	4.811057	106.801000
57.453434	4.821552	106.848000
57.477929	4.829674	106.894000
57.503519	4.837452	106.941000
57.529262	4.844334	106.986000
57.553284	4.851826	107.033000
57.577971	4.858742	107.079000
57.603457	4.866740	107.127000
57.628867	4.873135	107.173000
57.653945	4.881118	107.219000
57.740265	4.886844	107.266000
57.823262	4.936041	107.425000
57.848444	4.944434	107.578000
57.873396	4.951111	107.624000
57.897884	4.959905	107.671000
57.923316	4.966939	107.717000
57.948556	4.976439	107.763000
57.973331	4.985789	107.809000
57.999517	4.993889	107.855000
58.024177	5.001990	107.902000
58.049006	5.009076	107.948000
58.073627	5.017267	107.994000
58.099232	5.023489	108.040000
58.123562	5.030709	108.086000
58.148495	5.039211	108.132000
58.174065	5.047901	108.179000
58.199371	5.058286	108.225000
58.224281	5.067719	108.271000
58.249321	5.078798	108.318000
58.336432	5.088174	108.364000
58.535050	5.180092	108.525000
58.559310	5.187188	108.890000
58.583455	5.193679	108.936000
58.608611	5.202277	108.982000
58.633809	5.209844	109.028000
58.658803	5.216105	109.074000
58.683809	5.223222	109.121000
58.709622	5.228382	109.167000
58.734666	5.232070	109.213000
58.758995	5.234303	109.259000
58.784243	5.237406	109.306000
58.809360	5.239228	109.352000
58.833652	5.241339	109.398000
58.859357	5.243387	109.444000
59.057736	5.245298	109.490000
59.082285	5.268246	109.856000
59.108086	5.272785	109.903000
59.132957	5.275573	109.949000
59.157694	5.280657	109.995000
59.182826	5.285732	110.042000
59.207394	5.291373	110.088000
59.231885	5.295877	110.134000
59.257187	5.299886	110.181000
59.282892	5.304735	110.227000
59.308589	5.309630	110.273000
59.333633	5.312242	110.320000
59.358655	5.313498	110.367000
59.384164	5.315085	110.412000
59.408651	5.316312	110.459000
59.433015	5.318544	110.505000
59.527956	5.321901	110.552000
59.610215	5.353856	110.725000
59.635632	5.360823	110.877000
59.660561	5.366934	110.924000
59.685797	5.431535	110.971000
59.711540	5.353716	111.017000
59.735905	5.378305	111.064000
59.760549	5.387478	111.110000
59.785885	5.394679	111.157000
59.811514	5.402153	111.203000
59.836370	5.406062	111.249000
59.861552	5.410889	111.296000
59.887772	5.416177	111.341000
59.911971	5.419778	111.387000
59.936001	5.425513	111.433000
59.961018	5.430783	111.480000
59.985609	5.438789	111.526000
60.010776	5.444660	111.572000
60.036915	5.452703	111.618000
60.122440	5.459068	111.664000
60.206140	5.500050	111.825000
60.229813	5.507277	111.977000
60.254799	5.513194	112.023000
60.280927	5.521834	112.070000
60.305621	5.528017	112.117000
60.331138	5.535947	112.162000
60.356428	5.543293	112.209000
60.381991	5.549929	112.255000
60.406743	5.558953	112.301000
60.431830	5.567434	112.348000
60.456736	5.575299	112.394000
60.480727	5.582921	112.440000
60.506014	5.590621	112.486000
60.531550	5.598599	112.533000
60.556340	5.604754	112.578000
60.581515	5.612030	112.626000
60.607097	5.618122	112.672000
60.633090	5.623712	112.719000
60.718427	5.627791	112.765000
60.800893	5.643291	112.925000
60.826456	5.643916	113.078000
60.851335	5.645233	113.124000
60.876064	5.644467	113.170000
60.901712	5.641624	113.217000
60.927290	5.640598	113.263000
60.952338	5.639512	113.309000
60.977451	5.636640	113.356000
61.001885	5.634688	113.402000
61.027155	5.632696	113.448000
61.051923	5.630494	113.494000
61.077678	5.627090	113.542000
61.103022	5.623692	113.588000
61.127079	5.620184	113.634000
61.152396	5.615329	113.680000
61.178158	5.611715	113.726000
61.202968	5.606461	113.772000
61.227114	5.603588	113.818000
61.315028	5.600870	113.864000
61.511524	5.584870	114.024000
61.536799	5.581887	114.390000
61.562619	5.580262	114.437000
61.587276	5.579048	114.483000
61.613288	5.578115	114.530000
61.638543	5.576106	114.576000
61.663227	5.574100	114.622000
61.688640	5.572662	114.669000
61.713496	5.571677	114.715000
61.738102	5.571168	114.760000
61.762892	5.570373	114.808000
61.788179	5.570154	114.853000
61.813465	5.569773	114.900000
62.025432	5.571852	114.946000
62.049424	5.570014	115.338000
62.075018	5.570597	115.383000
62.100150	5.570858	115.429000
62.125064	5.572661	115.476000
62.150807	5.576115	115.522000
62.176451	5.578053	115.569000
62.201514	5.580633	115.615000
62.226478	5.582631	115.661000
62.251422	5.587849	115.708000
62.275786	5.591410	115.754000
62.300116	5.593331	115.800000
62.325840	5.597273	115.846000
62.351080	5.602058	115.892000
62.375640	5.607888	115.938000
62.401253	5.611307	115.985000
62.426739	5.616806	116.031000
62.510193	5.622376	116.078000
62.588453	5.639984	116.233000
62.613428	5.640950	116.377000
62.638737	5.640559	116.424000
62.663006	5.639864	116.470000
62.688910	5.638708	116.516000
62.714270	5.637091	116.562000
62.739118	5.636570	116.608000
62.764508	5.633842	116.655000
62.790658	5.634569	116.701000
62.814838	5.634418	116.747000
62.838911	5.638167	116.794000
62.864696	5.640659	116.841000
62.889487	5.643032	116.887000
62.914339	5.648157	116.933000
62.939356	5.650874	116.980000
62.965054	5.654803	117.026000
62.989587	5.659277	117.072000
63.015061	5.662655	117.118000
63.102411	5.668261	117.164000
63.183825	5.702473	117.325000
63.209426	5.707512	117.478000
63.234340	5.712337	117.524000
63.260352	5.718237	117.571000
63.285258	5.726055	117.617000
63.309538	5.733042	117.663000
63.334732	5.740723	117.709000
63.360475	5.747550	117.755000
63.384398	5.754427	117.801000
63.409277	5.762293	117.847000
63.434724	5.769520	117.894000
63.460314	5.776468	117.940000
63.484901	5.782894	117.987000
63.510226	5.790826	118.033000
63.535735	5.797947	118.079000
63.560767	5.805711	118.125000
63.585523	5.813588	118.171000
63.610368	5.820579	118.218000
63.697049	5.829489	118.264000
63.780015	5.887900	118.425000
63.805639	5.898639	118.578000
63.830826	5.906944	118.624000
63.856335	5.917062	118.671000
63.880660	5.925019	118.717000
63.905889	5.931576	118.763000
63.930726	5.940045	118.810000
63.954748	5.947956	118.855000
63.980153	5.955926	118.902000
64.005916	5.962863	118.948000
64.031464	5.969869	118.993000
64.055970	5.977395	119.041000
64.081610	5.982647	119.087000
64.106750	5.986871	119.133000
64.130288	5.988708	119.179000
64.155751	5.991877	119.225000
64.180865	5.993777	119.271000
64.205571	5.995795	119.318000
64.293170	5.998404	119.363000
64.490258	6.021875	119.524000
64.515713	6.026109	119.889000
64.541276	6.031054	119.936000
64.566217	6.037830	119.982000
64.590358	6.044702	120.028000
64.615137	6.051609	120.073000
64.640124	6.059601	120.120000
64.664726	6.066002	120.165000
64.690197	6.073815	120.212000
64.716021	6.079795	120.258000
64.740600	6.085295	120.305000
64.765871	6.092442	120.351000
64.791288	6.096947	120.397000
64.815983	6.102532	120.443000
65.014569	6.107176	120.490000
65.039748	6.131710	120.857000
65.064197	6.136405	120.904000
65.089767	6.138858	120.950000
65.114723	6.142544	120.996000
65.140617	6.145077	121.043000
65.165718	6.146720	121.089000
65.191066	6.147965	121.136000
65.216199	6.148971	121.182000
65.240156	6.150568	121.228000
65.265795	6.152139	121.274000
65.290452	6.152880	121.320000
65.315438	6.153345	121.367000
65.340502	6.153545	121.413000
65.366418	6.153906	121.459000
65.391743	6.154922	121.506000
65.484835	6.155192	121.552000
65.566741	6.163234	121.725000
65.591920	6.167213	121.877000
65.617798	6.170987	121.924000
65.642992	6.174975	121.970000
65.667709	6.180010	122.017000
65.692942	6.185869	122.063000
65.718543	6.192867	122.109000
65.743153	6.200429	122.155000
65.768048	6.208711	122.202000
65.793119	6.215589	122.248000
65.817752	6.222755	122.294000
65.843338	6.228690	122.341000
65.868716	6.234299	122.387000
65.893718	6.242153	122.434000
65.919074	6.246980	122.480000
65.944222	6.253416	122.526000
65.969523	6.260407	122.573000
65.993910	6.267494	122.619000
66.080880	6.272576	122.665000
66.162893	6.296173	122.824000
66.188440	6.296214	122.977000
66.214326	6.294719	123.024000
66.238175	6.290112	123.070000
66.262901	6.284080	123.116000
66.288125	6.278799	123.162000
66.312935	6.273820	123.208000
66.337691	6.267719	123.255000
66.363185	6.260058	123.301000
66.388179	6.250673	123.346000
66.413419	6.242594	123.393000
66.439543	6.234121	123.440000
66.464714	6.222766	123.486000
66.489148	6.212392	123.532000
66.513458	6.202116	123.579000
66.538522	6.191551	123.625000
66.563608	6.181662	123.671000
66.588664	6.170391	123.717000
66.676148	6.160542	123.764000
66.759467	6.115795	123.925000
66.784876	6.107641	124.077000
66.809240	6.099408	124.124000
66.834419	6.091096	124.171000
66.859283	6.084560	124.217000
66.884000	6.078619	124.263000
66.909947	6.075805	124.310000
66.935072	6.071631	124.356000
66.959974	6.070991	124.403000
66.985084	6.070656	124.449000
67.010455	6.069060	124.494000
67.035088	6.070437	124.541000
67.059444	6.069260	124.586000
67.084462	6.070406	124.634000
67.109771	6.071362	124.681000
67.134619	6.072759	124.727000
67.160951	6.075835	124.773000
67.185261	6.076346	124.819000
67.271961	6.079885	124.865000
67.469918	6.130722	125.025000
67.494689	6.135853	125.389000
67.519476	6.141792	125.435000
67.544739	6.147663	125.482000
67.569710	6.156086	125.528000
67.594374	6.159985	125.574000
67.620344	6.166016	125.620000
67.645623	6.173517	125.667000
67.670487	6.180493	125.713000
67.695788	6.188122	125.758000
67.720391	6.193761	125.805000
67.744125	6.200242	125.851000
67.769711	6.206969	125.897000
67.794997	6.213090	125.943000
67.993038	6.220147	125.990000
68.019300	6.284499	126.357000
68.044625	6.294093	126.404000
68.068782	6.303968	126.450000
68.094660	6.314099	126.496000
68.119915	6.322509	126.542000
68.144410	6.329626	126.588000
68.168144	6.337670	126.634000
68.194068	6.343172	126.681000
68.219101	6.350408	126.726000
68.244203	6.356550	126.774000
68.269927	6.360608	126.819000
68.295144	6.365009	126.866000
68.320253	6.367542	126.913000
68.345348	6.371096	126.959000
68.370734	6.372065	127.005000
68.463404	6.374534	127.051000
68.547269	6.371246	127.224000
68.571779	6.369877	127.377000
68.596965	6.366889	127.424000
68.622044	6.362611	127.470000
68.646862	6.359098	127.516000
68.671280	6.354521	127.563000
68.696528	6.349763	127.608000
68.722098	6.344021	127.655000
68.746416	6.338313	127.701000
68.771595	6.333092	127.748000
68.797458	6.328660	127.793000
68.822129	6.323593	127.840000
68.847485	6.317391	127.887000
68.872732	6.313173	127.933000
68.898142	6.305668	127.979000
68.922237	6.298311	128.026000
68.947953	6.291244	128.072000
68.972694	6.285534	128.118000
69.059010	6.280715	128.165000
69.143344	6.250976	128.325000
69.168814	6.244095	128.478000
69.194008	6.239189	128.525000
69.217858	6.235394	128.570000
69.242061	6.233176	128.617000
69.267877	6.230967	128.664000
69.293202	6.231340	128.710000
69.317927	6.232141	128.757000
69.343106	6.232764	128.803000
69.368976	6.234288	128.849000
69.393625	6.234629	128.895000
69.417743	6.235103	128.940000
69.442814	6.234844	128.987000
69.467432	6.233265	129.033000
69.492511	6.232875	129.078000
69.518673	6.233206	129.126000
69.544051	6.233839	129.172000
69.568769	6.236220	129.219000
69.656030	6.237200	129.266000
69.738020	6.268446	129.424000
69.763529	6.277644	129.578000
69.788178	6.287782	129.624000
69.813280	6.297508	129.671000
69.838858	6.309531	129.717000
69.863852	6.320985	129.763000
69.889307	6.335111	129.810000
69.914732	6.348170	129.856000
69.939749	6.361942	129.903000
69.964021	6.378193	129.948000
69.988762	6.390875	129.995000
70.013979	6.405434	130.041000
70.038351	6.418622	130.087000
70.063660	6.432494	130.133000
70.089031	6.444946	130.179000
70.114748	6.458189	130.226000
70.139481	6.471576	130.272000
70.164698	6.485129	130.318000
70.251313	6.497491	130.364000
70.448663	6.614169	130.525000
70.473911	6.622483	130.890000
70.498191	6.632656	130.936000
70.523454	6.639843	130.982000
70.549186	6.647231	131.028000
70.574157	6.655652	131.075000
70.599174	6.665579	131.122000
70.625221	6.674872	131.168000
70.650661	6.683347	131.215000
70.674472	6.692472	131.260000
70.698936	6.702127	131.306000
70.724292	6.711912	131.353000
70.749086	6.719387	131.399000
70.774895	6.728144	131.444000
70.973558	6.737818	131.491000
70.998368	6.806770	131.858000
71.023923	6.814617	131.905000
71.049087	6.822559	131.951000
71.073436	6.830439	131.997000
71.098284	6.839078	132.043000
71.123847	6.845976	132.090000
71.148042	6.853916	132.136000
71.173413	6.863591	132.182000
71.198830	6.873631	132.228000
71.224761	6.882104	132.275000
71.249679	6.890097	132.321000
71.274565	6.899786	132.368000
71.300428	6.908349	132.414000
71.324431	6.919870	132.460000
71.348818	6.931521	132.507000
71.442457	6.941341	132.553000
71.525200	7.008074	132.724000
71.551154	7.019515	132.877000
71.575004	7.030039	132.924000
71.599660	7.040008	132.970000
71.625054	7.048342	133.016000
71.650317	7.056344	133.062000
71.675434	7.063602	133.109000
71.701074	7.070046	133.155000
71.726337	7.076388	133.202000
71.750870	7.081613	133.248000
71.776234	7.086830	133.294000
71.801704	7.092805	133.341000
71.825853	7.096781	133.387000
71.851501	7.099919	133.434000
71.876526	7.102673	133.480000
71.901758	7.105240	133.527000
71.926776	7.106146	133.574000
71.952146	7.105725	133.620000
72.038239	7.107170	133.665000
72.121298	7.115940	133.825000
72.145039	7.120017	133.977000
72.170894	7.126548	134.024000
72.195405	7.132886	134.069000
72.220406	7.139456	134.116000
72.246169	7.147787	134.162000
72.271840	7.155430	134.209000
72.297326	7.164484	134.255000
72.320768	7.175003	134.301000
72.345824	7.187391	134.348000
72.370810	7.200480	134.394000
72.395835	7.215844	134.440000
72.421944	7.232872	134.487000
72.447337	7.247613	134.533000
72.472562	7.260423	134.580000
72.498048	7.271295	134.626000
72.523404	7.284403	134.673000
72.548167	7.297291	134.719000
72.634091	7.311196	134.766000
72.716512	7.367509	134.925000
72.742290	7.375482	135.077000
72.767223	7.383000	135.124000
72.792232	7.390146	135.171000
72.817618	7.397274	135.217000
72.843519	7.402794	135.264000
72.868168	7.407053	135.309000
72.892163	7.412318	135.356000
72.917573	7.417092	135.403000
72.943243	7.422472	135.450000
72.967753	7.427788	135.497000
72.993808	7.432705	135.543000
73.018495	7.437923	135.589000
73.042951	7.442206	135.634000
73.067884	7.448407	135.679000
73.092732	7.454437	135.725000
73.116589	7.459797	135.771000
73.141968	7.463706	135.818000
73.229436	7.469147	135.864000
73.426986	7.531565	136.025000
73.452403	7.541122	136.390000
73.478119	7.551841	136.437000
73.503183	7.564054	136.483000
73.529268	7.578117	136.528000
73.553863	7.592993	136.576000
73.577282	7.608790	136.622000
73.602184	7.625455	136.667000
73.627401	7.641306	136.713000
73.652818	7.658902	136.760000
73.677443	7.701309	136.806000
73.703160	7.687805	136.853000
73.727993	7.710108	136.898000
73.752457	7.728611	136.944000
73.952042	7.748595	136.990000
73.975915	7.917900	137.357000
74.001109	7.943109	137.404000
74.026841	7.967151	137.450000
74.052035	7.991448	137.497000
74.076898	8.015066	137.543000
74.102607	8.034190	137.590000
74.128216	8.052955	137.636000
74.152465	8.069596	137.683000
74.177744	8.085602	137.729000
74.202984	8.101505	137.774000
74.227125	8.116671	137.821000
74.251889	8.130563	137.868000
74.277867	8.143952	137.914000
74.302953	8.158862	137.960000
74.326910	8.174294	138.006000
74.421686	8.189068	138.052000
74.503131	8.296535	138.225000
74.529193	8.316374	138.378000
74.553910	8.338179	138.424000
74.578667	8.359630	138.471000
74.604598	8.384089	138.518000
74.630000	8.407366	138.564000
74.654387	8.429849	138.609000
74.679251	8.454641	138.656000
74.705636	8.478212	138.702000
74.729508	8.504647	138.749000
74.754041	8.531788	138.795000
74.779358	8.561036	138.841000
74.804652	8.589173	138.886000
74.830008	8.617370	138.933000
74.854556	8.645227	138.980000
74.880457	8.671561	139.026000
74.905021	8.695805	139.071000
74.929186	8.720682	139.117000
75.017323	8.748285	139.164000
75.100058	8.928545	139.325000
75.126044	8.965662	139.478000
75.150416	9.003460	139.524000
75.176401	9.041318	139.571000
75.201733	9.078654	139.616000
75.226659	9.117370	139.663000
75.251637	9.154260	139.710000
75.275879	9.190874	139.756000
75.300781	9.227345	139.802000
75.326021	9.262616	139.849000
75.351791	9.296004	139.894000
75.376686	9.329481	139.942000
75.401526	9.363527	139.987000
75.426766	9.395406	140.034000
75.452153	9.428751	140.079000
75.476386	9.461186	140.126000
75.501350	9.491757	140.172000
75.526882	9.521854	140.219000
75.612337	9.549630	140.264000
75.696748	9.708791	140.425000
75.721043	9.736448	140.578000
75.746867	9.764546	140.624000
75.771177	9.792345	140.670000
75.795165	9.819461	140.716000
75.820951	9.849202	140.762000
75.845907	9.878963	140.809000
75.871493	9.909562	140.854000
75.896571	9.938814	140.902000
75.921965	9.966991	140.948000
75.946929	9.995674	140.994000
75.972000	10.025116	141.040000
75.997240	10.056211	141.086000
76.020928	10.085821	141.132000
76.045208	10.115462	141.178000
76.071339	10.147512	141.224000
76.096326	10.180089	141.270000
76.121182	10.213628	141.317000
76.209027	10.247716	141.363000
76.407237	10.614397	141.525000
76.432154	10.650431	141.890000
76.458055	10.686461	141.937000
76.482358	10.721614	141.983000
76.506377	10.757001	142.029000
76.532047	10.794718	142.076000
76.556665	10.833324	142.121000
76.582312	10.872075	142.167000
76.607214	10.911532	142.214000
76.632823	10.950726	142.260000
76.657764	10.989299	142.307000
76.682574	11.027633	142.352000
76.708367	11.066252	142.399000
76.920192	11.105307	142.445000
76.944549	11.426154	142.837000
76.970204	11.465784	142.884000
76.996251	11.503897	142.930000
77.021283	11.545451	142.977000
77.046116	11.589388	143.023000
77.070511	11.630582	143.069000
77.095959	11.669454	143.115000
77.119831	11.708875	143.161000
77.145540	11.748673	143.207000
77.170634	11.790494	143.253000
77.194760	11.832693	143.298000
77.219209	11.876751	143.344000
77.244803	11.918415	143.390000
77.268537	11.963875	143.436000
77.293677	12.007492	143.482000
77.319048	12.053558	143.528000
77.403113	12.099275	143.575000
77.483082	12.348984	143.729000
77.508276	12.391461	143.878000
77.534123	12.435651	143.925000
77.559010	12.477874	143.971000
77.584665	12.520265	144.017000
77.608830	12.566853	144.063000
77.633447	12.615134	144.108000
77.657481	12.665578	144.154000
77.683228	12.717326	144.201000
77.708822	12.772153	144.247000
77.732841	12.827328	144.293000
77.758511	12.883871	144.339000
77.784028	12.941379	144.385000
77.808646	13.000877	144.431000
77.832295	13.061599	144.477000
77.857482	13.123167	144.523000
77.882814	13.187363	144.569000
77.907854	13.251482	144.616000
77.996191	13.317237	144.662000
78.079510	13.680364	144.825000
78.105803	13.736284	144.979000
78.131074	13.793478	145.025000
78.155323	13.851575	145.072000
78.180094	13.909777	145.118000
78.204774	13.971686	145.164000
78.229853	14.035592	145.210000
78.255477	14.098164	145.257000
78.281232	14.160212	145.304000
78.305880	14.222765	145.350000
78.331228	14.285145	145.396000
78.356745	14.349408	145.442000
78.381985	14.414903	145.489000
78.405566	14.483691	145.535000
78.430867	14.553033	145.581000
78.456100	14.621805	145.627000
78.480986	14.688021	145.674000
78.506603	14.750949	145.720000
78.591866	14.811276	145.766000
78.675939	15.144991	145.925000
78.700887	15.202807	146.079000
78.725090	15.260705	146.125000
78.750376	15.317269	146.171000
78.763484	15.403116	146.218000
78.800733	15.431685	146.264000
78.826519	15.491455	146.310000
78.851183	15.551208	146.356000
78.875693	15.608065	146.402000
78.900979	15.664391	146.448000
78.926527	15.716865	146.494000
78.950799	15.770154	146.540000
78.975209	15.822622	146.587000
79.001003	15.875274	146.633000
79.026297	15.928099	146.680000
79.050907	15.979299	146.726000
79.076692	16.035690	146.771000
79.102140	16.093761	146.818000
79.187926	16.157787	146.864000
79.386389	16.913913	147.024000
79.411038	16.984744	147.391000
79.435932	17.053769	147.437000
79.461526	17.122130	147.484000
79.485990	17.189583	147.530000
79.511253	17.257703	147.577000
79.536547	17.323195	147.623000
79.562079	17.392971	147.669000
79.586782	17.463528	147.714000
79.612475	17.535589	147.761000
79.637277	17.606204	147.807000
79.661173	17.678507	147.854000
79.686597	17.747606	147.900000
79.899229	17.816684	147.947000
79.924585	18.433688	148.337000
79.936640	18.545636	148.384000
79.973890	18.582046	148.430000
79.998530	18.654020	148.476000
80.022787	18.728724	148.522000
80.048634	18.802608	148.568000
80.074097	18.876305	148.615000
80.098869	18.951599	148.660000
80.124009	19.030240	148.707000
80.149103	19.111039	148.753000
80.174543	19.195043	148.799000
80.197832	19.282519	148.845000
80.223502	19.368546	148.891000
80.248028	19.457714	148.937000
80.273537	19.550464	148.983000
80.298777	19.644449	149.029000
80.382803	19.743206	149.076000
80.462926	20.306824	149.231000
80.487659	20.406310	149.378000
80.512746	20.504491	149.425000
80.537602	20.600803	149.470000
80.561520	20.696325	149.517000
80.586330	20.790032	149.563000
80.612239	20.883488	149.608000
80.636895	20.975422	149.655000
80.662204	21.068897	149.700000
80.687867	21.164154	149.747000
80.713284	21.258211	149.794000
80.737694	21.351867	149.840000
80.762450	21.453906	149.886000
80.787944	21.562345	149.933000
80.812193	21.676357	149.979000
80.836534	21.788815	150.024000
80.862289	21.896986	150.070000
80.887706	22.009019	150.117000
80.975190	22.126524	150.162000
81.058064	22.816155	150.325000
81.082889	22.930678	150.478000
81.108244	23.047838	150.524000
81.132824	23.167922	150.571000
81.158240	23.285980	150.617000
81.184072	23.408581	150.663000
81.209266	23.528328	150.710000
81.234053	23.647102	150.756000
81.259047	23.765787	150.803000
81.284895	23.883488	150.849000
81.308821	24.005152	150.895000
81.334046	24.128961	150.942000
81.359462	24.255865	150.989000
81.384295	24.381188	151.034000
81.408929	24.507834	151.081000
81.434876	24.637511	151.126000
81.459824	24.767247	151.173000
81.484265	24.898867	151.219000
81.571680	25.029771	151.265000
81.653247	25.778144	151.424000
81.679033	25.898327	151.579000
81.704204	26.015238	151.625000
81.728683	26.134151	151.671000
81.754553	26.253468	151.718000
81.780032	26.372027	151.764000
81.804473	26.491747	151.810000
81.830451	26.609125	151.856000
81.854677	26.724680	151.903000
81.878949	26.833881	151.948000
81.904304	26.942728	151.995000
81.929329	27.047087	152.041000
81.954170	27.147619	152.087000
81.979709	27.245108	152.134000
82.005472	27.343908	152.180000
82.030459	27.451506	152.226000
82.054677	27.564578	152.273000
82.079525	27.675784	152.319000
82.165872	27.794269	152.365000
82.363613	29.192545	152.525000
82.388938	29.335167	152.890000
