Sample	2mm tape 
date	07/01/2025
	
Temperature (K)	77.00
Angle (deg.)	150.000000
field / T	0.000000
	
		
Approx. trace time (s)	120.0	
		
Current / A	V1  -sample/ uV	time/s
-0.018849	-0.553453	0.000000
-0.018781	-0.551725	0.045000
-0.018375	-0.547962	0.096000
-0.018719	-0.545035	0.142000
-0.018830	-0.541880	0.188000
-0.018455	-0.538568	0.233000
-0.019345	-0.534624	0.279000
-0.018276	-0.529947	0.325000
-0.018399	-0.527360	0.370000
-0.008084	-0.499551	0.757000
0.020346	-0.492951	0.803000
0.046816	-0.487004	0.849000
0.070982	-0.482831	0.895000
0.097356	-0.477119	0.941000
0.120107	-0.472893	0.987000
0.145505	-0.466390	1.032000
0.169138	-0.459645	1.078000
0.195408	-0.453704	1.123000
0.219396	-0.447294	1.170000
0.245428	-0.441422	1.216000
0.270891	-0.434584	1.262000
0.294260	-0.428545	1.308000
0.319267	-0.422068	1.354000
0.344157	-0.417460	1.400000
0.368361	-0.412903	1.445000
0.453019	-0.410124	1.491000
0.547505	-0.375780	1.646000
0.572247	-0.368824	1.820000
0.596433	-0.361948	1.866000
0.621156	-0.355162	1.912000
0.645678	-0.349342	1.958000
0.659182	-0.337926	2.004000
0.696463	-0.335534	2.050000
0.721592	-0.330710	2.096000
0.746925	-0.325581	2.142000
0.771728	-0.319109	2.188000
0.796015	-0.315381	2.234000
0.820580	-0.309942	2.280000
0.845128	-0.304542	2.326000
0.870524	-0.300753	2.371000
0.895274	-0.296634	2.417000
0.920396	-0.292341	2.463000
0.945575	-0.287791	2.509000
0.970036	-0.283913	2.555000
1.053393	-0.278999	2.601000
1.142877	-0.254027	2.756000
1.167385	-0.248391	2.920000
1.191877	-0.241436	2.966000
1.217105	-0.235345	3.012000
1.242160	-0.229465	3.058000
1.266971	-0.223260	3.103000
1.292091	-0.216013	3.150000
1.317025	-0.209337	3.195000
1.341241	-0.203277	3.241000
1.365727	-0.198162	3.287000
1.390953	-0.189309	3.333000
1.415890	-0.182560	3.379000
1.440880	-0.175099	3.425000
1.466096	-0.167412	3.471000
1.490488	-0.160487	3.516000
1.515538	-0.152862	3.562000
1.539826	-0.146906	3.608000
1.564716	-0.141260	3.654000
1.649108	-0.135666	3.700000
1.737810	-0.097480	3.855000
1.763201	-0.093502	4.020000
1.788540	-0.089541	4.066000
1.813371	-0.085452	4.112000
1.838562	-0.082668	4.158000
1.863930	-0.077317	4.205000
1.888427	-0.072530	4.251000
1.912790	-0.067204	4.297000
1.937845	-0.063879	4.343000
1.962578	-0.060186	4.389000
1.987824	-0.055251	4.435000
2.012430	-0.053201	4.481000
2.038271	-0.049224	4.526000
2.062776	-0.045681	4.572000
2.086844	-0.043588	4.618000
2.111728	-0.039560	4.664000
2.136203	-0.036941	4.710000
2.161622	-0.033959	4.755000
2.245283	-0.031520	4.801000
2.448718	-0.020931	4.956000
2.473739	-0.021306	5.333000
2.498648	-0.020380	5.378000
2.524152	-0.021186	5.424000
2.548851	-0.021101	5.470000
2.573731	-0.021246	5.516000
2.597914	-0.021715	5.561000
2.622467	-0.022581	5.607000
2.647694	-0.023765	5.653000
2.673074	-0.023545	5.700000
2.697984	-0.023944	5.746000
2.722987	-0.024174	5.792000
2.748122	-0.023484	5.837000
2.949847	-0.023290	5.883000
2.975198	-0.011206	6.256000
2.999915	-0.008299	6.303000
3.025328	-0.006920	6.349000
3.049788	-0.003890	6.395000
3.073744	-0.002283	6.441000
3.098954	0.001086	6.486000
3.123782	0.004773	6.532000
3.149057	0.007793	6.578000
3.173917	0.010555	6.624000
3.198798	0.010655	6.670000
3.223965	0.012470	6.716000
3.247631	0.014188	6.762000
3.272691	0.016332	6.808000
3.297294	0.017257	6.854000
3.322981	0.019835	6.899000
3.347952	0.023963	6.946000
3.431838	0.027556	6.992000
3.526044	0.054971	7.145000
3.550327	0.061427	7.320000
3.575469	0.063363	7.367000
3.600414	0.068128	7.413000
3.625983	0.073768	7.459000
3.650311	0.078022	7.505000
3.675978	0.085579	7.551000
3.700669	0.091279	7.597000
3.725259	0.096699	7.642000
3.749347	0.100828	7.688000
3.774321	0.105031	7.734000
3.799041	0.108510	7.780000
3.823986	0.112879	7.826000
3.849494	0.117553	7.872000
3.874640	0.123474	7.918000
3.899114	0.128318	7.964000
3.923556	0.133022	8.009000
3.948047	0.139132	8.055000
4.032149	0.144008	8.101000
4.121043	0.180636	8.256000
4.146195	0.189159	8.420000
4.171308	0.221234	8.466000
4.196117	0.202266	8.512000
4.221318	0.212411	8.557000
4.245663	0.219837	8.603000
4.269867	0.228220	8.649000
4.294675	0.236693	8.695000
4.319868	0.244228	8.741000
4.344664	0.251125	8.787000
4.369941	0.258951	8.833000
4.395125	0.266341	8.879000
4.419818	0.273718	8.925000
4.444479	0.281568	8.970000
4.468611	0.286696	9.016000
4.493511	0.292717	9.062000
4.518569	0.300212	9.108000
4.543837	0.308372	9.154000
4.627791	0.314649	9.200000
4.717047	0.351408	9.355000
4.742533	0.355051	9.520000
4.767154	0.359869	9.566000
4.792307	0.363731	9.612000
4.816158	0.367859	9.658000
4.841167	0.371242	9.703000
4.865834	0.373991	9.750000
4.890943	0.378738	9.795000
4.916300	0.382460	9.841000
4.941287	0.386618	9.887000
4.966531	0.390895	9.933000
4.991043	0.395933	9.979000
5.015196	0.401090	10.025000
5.040045	0.403428	10.071000
5.065174	0.406117	10.117000
5.090021	0.409489	10.163000
5.115403	0.411678	10.209000
5.140178	0.415916	10.255000
5.223038	0.420068	10.301000
5.427939	0.444904	10.455000
5.453042	0.444390	10.833000
5.477956	0.447048	10.878000
5.502843	0.449148	10.924000
5.526838	0.451456	10.969000
5.551664	0.453024	11.016000
5.576249	0.454639	11.061000
5.601373	0.456172	11.107000
5.626262	0.458582	11.153000
5.650850	0.461730	11.198000
5.675832	0.463117	11.244000
5.700494	0.465944	11.290000
5.725155	0.468446	11.336000
5.928975	0.470043	11.382000
5.953952	0.492980	11.757000
5.978485	0.498369	11.803000
6.002747	0.503594	11.848000
6.027631	0.508734	11.895000
6.052596	0.514423	11.940000
6.078062	0.519298	11.986000
6.102917	0.523126	12.033000
6.128037	0.528132	12.079000
6.153029	0.534648	12.124000
6.177332	0.538375	12.170000
6.201824	0.542690	12.216000
6.226639	0.547875	12.262000
6.252148	0.553474	12.309000
6.277069	0.557959	12.355000
6.302186	0.563604	12.401000
6.327506	0.568759	12.446000
6.410194	0.574264	12.492000
6.503946	0.612394	12.647000
6.529182	0.619380	12.821000
6.554774	0.626767	12.867000
6.579190	0.632948	12.912000
6.604506	0.638838	12.957000
6.629297	0.646169	13.004000
6.653664	0.652320	13.050000
6.678296	0.657114	13.096000
6.702830	0.660462	13.142000
6.728475	0.661464	13.188000
6.753289	0.665917	13.234000
6.778260	0.669413	13.280000
6.803812	0.673930	13.326000
6.828488	0.675845	13.372000
6.852536	0.679019	13.418000
6.876827	0.681851	13.463000
6.902555	0.685154	13.509000
6.927137	0.686288	13.556000
7.011741	0.685554	13.601000
7.099999	0.697558	13.756000
7.125569	0.700741	13.921000
7.150106	0.705848	13.966000
7.175079	0.707897	14.012000
7.199381	0.711540	14.058000
7.223846	0.711839	14.104000
7.249062	0.714177	14.150000
7.274181	0.713918	14.196000
7.299098	0.716447	14.242000
7.323976	0.718255	14.287000
7.349209	0.719710	14.332000
7.373892	0.721175	14.379000
7.397887	0.721888	14.425000
7.422910	0.723353	14.471000
7.447773	0.723423	14.517000
7.472867	0.724618	14.562000
7.498704	0.724037	14.608000
7.523423	0.723662	14.655000
7.606189	0.722738	14.701000
7.697014	0.711779	14.854000
7.721793	0.708436	15.021000
7.745995	0.705438	15.067000
7.770163	0.701835	15.111000
7.795667	0.698342	15.157000
7.820740	0.695893	15.204000
7.845808	0.696823	15.250000
7.871699	0.696937	15.295000
7.896509	0.697757	15.343000
7.921393	0.698692	15.389000
7.946050	0.699456	15.435000
7.970401	0.701835	15.481000
7.995016	0.701845	15.526000
8.020051	0.702789	15.572000
8.045139	0.700721	15.618000
8.070484	0.698841	15.664000
8.095478	0.696572	15.710000
8.119952	0.696063	15.756000
8.203488	0.694045	15.802000
8.407524	0.667583	15.957000
8.432219	0.662630	16.333000
8.456250	0.659116	16.378000
8.481000	0.654532	16.424000
8.505986	0.648167	16.470000
8.531113	0.643202	16.516000
8.556528	0.638538	16.562000
8.581429	0.635995	16.608000
8.606547	0.631031	16.654000
8.631156	0.630115	16.700000
8.655101	0.626927	16.746000
8.679791	0.628424	16.792000
8.704918	0.627352	16.837000
8.907667	0.628434	16.883000
8.932363	0.632727	17.257000
8.957312	0.633913	17.302000
8.981970	0.633963	17.348000
9.007085	0.634799	17.394000
9.032458	0.636626	17.440000
9.057157	0.638958	17.486000
9.081575	0.643552	17.532000
9.106129	0.646240	17.578000
9.131026	0.650884	17.624000
9.155756	0.653867	17.670000
9.180915	0.659427	17.715000
9.205921	0.663395	17.761000
9.231061	0.670052	17.807000
9.256141	0.673709	17.853000
9.280161	0.679743	17.899000
9.305131	0.684600	17.945000
9.389288	0.689861	17.991000
9.484163	0.733127	18.146000
9.509171	0.740103	18.321000
9.534591	0.745110	18.367000
9.558979	0.751387	18.413000
9.583232	0.756575	18.459000
9.608251	0.760531	18.505000
9.633111	0.764964	18.551000
9.658319	0.769585	18.597000
9.683533	0.773694	18.642000
9.708323	0.776363	18.688000
9.733294	0.780951	18.734000
9.757767	0.783908	18.780000
9.782299	0.786136	18.826000
9.806499	0.788615	18.872000
9.832375	0.791419	18.918000
9.856860	0.794892	18.964000
9.882310	0.796715	19.009000
9.907057	0.800050	19.055000
9.989642	0.803243	19.102000
10.080130	0.825885	19.255000
10.104874	0.827844	19.421000
10.128923	0.830172	19.466000
10.154017	0.830533	19.513000
10.178834	0.830861	19.558000
10.203680	0.830711	19.604000
10.229014	0.833725	19.650000
10.254387	0.833865	19.696000
10.279038	0.835398	19.742000
10.304141	0.835678	19.789000
10.328231	0.835914	19.835000
10.352691	0.835340	19.881000
10.378298	0.834066	19.926000
10.403368	0.832711	19.972000
10.428413	0.830412	20.018000
10.453388	0.828918	20.064000
10.478265	0.825164	20.110000
10.502542	0.823980	20.155000
10.586200	0.821932	20.201000
10.674937	0.807025	20.357000
10.699553	0.802567	20.520000
10.724871	0.801432	20.566000
10.749511	0.799268	20.612000
10.774633	0.798755	20.658000
10.799883	0.795212	20.704000
10.824888	0.792198	20.750000
10.849052	0.789549	20.796000
10.873278	0.785637	20.841000
10.898329	0.784262	20.887000
10.923386	0.781299	20.933000
10.948560	0.778711	20.979000
10.973523	0.773339	21.025000
10.998731	0.771094	21.071000
11.023266	0.768346	21.117000
11.047404	0.765409	21.163000
11.072163	0.763170	21.208000
11.097330	0.759797	21.254000
11.181684	0.758453	21.300000
11.385452	0.751167	21.454000
11.410202	0.751828	21.833000
11.435264	0.756495	21.879000
11.459992	0.758048	21.925000
11.485709	0.759082	21.971000
11.510407	0.762157	22.016000
11.535365	0.762625	22.061000
11.559733	0.764706	22.108000
11.584626	0.764626	22.154000
11.609133	0.767928	22.200000
11.634148	0.768427	22.246000
11.659498	0.770487	22.292000
11.684810	0.771836	22.337000
11.886407	0.774434	22.384000
11.911401	0.784393	22.757000
11.936966	0.785828	22.804000
11.961673	0.785457	22.849000
11.986328	0.785928	22.895000
12.011375	0.787032	22.941000
12.035503	0.788495	22.987000
12.060370	0.789609	23.033000
12.085394	0.791289	23.079000
12.110489	0.793938	23.125000
12.135355	0.796277	23.170000
12.160060	0.799730	23.216000
12.185375	0.801094	23.262000
12.209639	0.803721	23.308000
12.233934	0.805541	23.354000
12.259200	0.808030	23.400000
12.283951	0.809663	23.446000
12.368836	0.811893	23.492000
12.462855	0.820426	23.647000
12.487586	0.823895	23.821000
12.511599	0.823979	23.866000
12.536877	0.827823	23.913000
12.561597	0.832550	23.959000
12.586439	0.835488	24.004000
12.611878	0.841350	24.050000
12.636578	0.843818	24.096000
12.661385	0.848077	24.142000
12.685373	0.850405	24.188000
12.710071	0.854802	24.234000
12.735527	0.856437	24.280000
12.760611	0.862329	24.325000
12.785550	0.866265	24.371000
12.810972	0.872798	24.418000
12.836185	0.877225	24.464000
12.861004	0.883685	24.511000
12.886275	0.888572	24.556000
12.969303	0.894473	24.603000
13.057897	0.939855	24.757000
13.082370	0.949704	24.921000
13.107670	0.959428	24.967000
13.132939	0.968001	25.013000
13.157609	0.977549	25.058000
13.182866	0.986062	25.104000
13.207383	0.997538	25.150000
13.232016	1.004905	25.196000
13.256375	1.015650	25.241000
13.281328	1.024758	25.287000
13.306421	1.035213	25.333000
13.331119	1.045327	25.379000
13.356456	1.053590	25.425000
13.381664	1.063358	25.471000
13.406555	1.070265	25.518000
13.430720	1.079713	25.563000
13.455298	1.085213	25.609000
13.480403	1.093966	25.655000
13.564809	1.100038	25.701000
13.653796	1.140671	25.856000
13.678839	1.146128	26.021000
13.703912	1.154933	26.067000
13.728930	1.161624	26.112000
13.753834	1.170760	26.158000
13.778646	1.175507	26.204000
13.803159	1.180708	26.251000
13.827969	1.184611	26.296000
13.853022	1.190213	26.343000
13.878409	1.195321	26.388000
13.903454	1.201308	26.434000
13.928063	1.207408	26.480000
13.952989	1.214534	26.526000
13.977021	1.222005	26.572000
14.001920	1.227452	26.618000
14.026566	1.233598	26.664000
14.051741	1.238616	26.710000
14.076991	1.245127	26.755000
14.160292	1.250279	26.801000
14.364510	1.304198	26.956000
14.389759	1.308580	27.333000
14.414745	1.312488	27.379000
14.439721	1.313584	27.425000
14.464692	1.316337	27.471000
14.489274	1.318219	27.516000
14.513369	1.320851	27.563000
14.538088	1.322598	27.608000
14.562928	1.325635	27.654000
14.588198	1.330039	27.700000
14.613443	1.333022	27.746000
14.637946	1.336300	27.791000
14.662595	1.336120	27.837000
14.865160	1.338622	27.882000
14.890822	1.351839	28.257000
14.915262	1.353401	28.303000
14.940179	1.354482	28.349000
14.964713	1.357299	28.395000
14.990000	1.356604	28.441000
15.015430	1.359392	28.487000
15.040140	1.360092	28.533000
15.065738	1.361893	28.580000
15.090520	1.362554	28.625000
15.116132	1.363339	28.671000
15.139972	1.364626	28.717000
15.164958	1.364907	28.763000
15.189314	1.365007	28.809000
15.214580	1.365312	28.855000
15.239728	1.367449	28.901000
15.264568	1.366658	28.947000
15.349208	1.368990	28.993000
15.441695	1.357069	29.148000
15.466439	1.357660	29.320000
15.491358	1.356959	29.366000
15.516729	1.358515	29.412000
15.541275	1.357730	29.458000
15.566562	1.359992	29.504000
15.591378	1.361288	29.550000
15.616024	1.363701	29.596000
15.640580	1.363801	29.643000
15.665577	1.366658	29.688000
15.691207	1.367904	29.735000
15.716062	1.365772	29.781000
15.741092	1.365282	29.827000
15.766583	1.364186	29.873000
15.790981	1.367534	29.918000
15.815483	1.367299	29.965000
15.839686	1.366488	30.010000
15.864753	1.365622	30.056000
15.949054	1.365782	30.102000
16.037718	1.370056	30.257000
16.062902	1.371602	30.420000
16.087756	1.371622	30.467000
16.113527	1.375351	30.513000
16.137724	1.375521	30.559000
16.162484	1.376728	30.605000
16.186706	1.377062	30.651000
16.211426	1.378869	30.697000
16.236912	1.381602	30.742000
16.261637	1.382237	30.789000
16.287382	1.383383	30.834000
16.312215	1.384780	30.881000
16.337304	1.386156	30.927000
16.361265	1.385495	30.973000
16.385548	1.387472	31.018000
16.410297	1.387908	31.063000
16.435385	1.387382	31.109000
16.460525	1.387908	31.155000
16.544705	1.386701	31.201000
16.633791	1.379455	31.355000
16.659073	1.377804	31.521000
16.684029	1.375352	31.567000
16.708107	1.373664	31.613000
16.732721	1.372348	31.659000
16.757756	1.368770	31.705000
16.783207	1.366012	31.751000
16.808059	1.362970	31.797000
16.833219	1.363110	31.843000
16.858117	1.360143	31.889000
16.883146	1.359146	31.935000
16.907894	1.356034	31.981000
16.932631	1.354627	32.027000
16.957216	1.350574	32.074000
16.982172	1.345719	32.119000
17.007259	1.340354	32.165000
17.032505	1.335720	32.211000
17.058219	1.332482	32.257000
17.140926	1.323353	32.304000
17.344630	1.266639	32.458000
17.369847	1.259339	32.833000
17.394417	1.253088	32.880000
17.419207	1.244507	32.925000
17.443222	1.238536	32.971000
17.468696	1.232079	33.017000
17.493464	1.227492	33.063000
17.518679	1.221510	33.109000
17.543491	1.215530	33.154000
17.569398	1.208692	33.201000
17.594108	1.202941	33.247000
17.618109	1.196979	33.293000
17.642394	1.191287	33.339000
17.845247	1.185230	33.385000
17.869496	1.154398	33.757000
17.893580	1.152815	33.802000
17.918910	1.148962	33.849000
17.943816	1.148098	33.895000
17.968926	1.146653	33.940000
17.993991	1.148636	33.986000
18.018511	1.146603	34.032000
18.043788	1.146713	34.078000
18.067645	1.145329	34.124000
18.092412	1.145769	34.170000
18.117983	1.145298	34.216000
18.142701	1.144565	34.262000
18.167916	1.143070	34.308000
18.192889	1.141162	34.353000
18.217901	1.140446	34.399000
18.242194	1.138147	34.445000
18.325932	1.137589	34.491000
18.420394	1.127119	34.646000
18.445692	1.125245	34.821000
18.470919	1.122642	34.866000
18.495999	1.122441	34.912000
18.520717	1.121277	34.958000
18.545233	1.121208	35.005000
18.569955	1.119964	35.051000
18.594801	1.121078	35.097000
18.620097	1.120848	35.143000
18.645416	1.119824	35.188000
18.670573	1.118399	35.235000
18.695458	1.118024	35.281000
18.707481	1.117365	35.326000
18.744724	1.118084	35.372000
18.769094	1.118720	35.419000
18.794016	1.119914	35.465000
18.819010	1.123567	35.511000
18.843904	1.123636	35.557000
18.928036	1.125130	35.602000
19.016711	1.120114	35.757000
19.042237	1.120797	35.921000
19.067205	1.118469	35.968000
19.091118	1.119773	36.013000
19.116035	1.118929	36.059000
19.140870	1.118529	36.105000
19.165755	1.118124	36.151000
19.191256	1.118629	36.197000
19.216506	1.119653	36.244000
19.241493	1.121466	36.289000
19.266485	1.125274	36.335000
19.290697	1.126409	36.381000
19.314773	1.129148	36.427000
19.340521	1.129408	36.473000
19.365190	1.133835	36.519000
19.390171	1.137118	36.565000
19.415477	1.141905	36.611000
19.440838	1.147312	36.657000
19.523495	1.153638	36.703000
19.613130	1.193847	36.858000
19.637288	1.200123	37.021000
19.661641	1.207588	37.067000
19.687045	1.214714	37.113000
19.711591	1.222465	37.159000
19.736820	1.229601	37.205000
19.761874	1.239490	37.251000
19.786770	1.245982	37.297000
19.812152	1.255940	37.343000
19.835864	1.264351	37.389000
19.860604	1.271807	37.434000
19.885583	1.279937	37.480000
19.910591	1.287777	37.526000
19.935645	1.295897	37.572000
19.960393	1.304538	37.618000
19.986229	1.316146	37.664000
20.009869	1.322913	37.710000
20.034583	1.331696	37.756000
20.118801	1.339123	37.801000
20.323289	1.421012	37.955000
20.347718	1.427033	38.334000
20.372188	1.437002	38.379000
20.397394	1.445275	38.425000
20.422242	1.454968	38.471000
20.447839	1.463591	38.517000
20.472419	1.473866	38.563000
20.497271	1.484251	38.609000
20.522131	1.494600	38.655000
20.546211	1.503338	38.701000
20.571241	1.513247	38.746000
20.596230	1.525203	38.792000
20.621084	1.535681	38.838000
20.822901	1.549125	38.884000
20.847780	1.636751	39.257000
20.872717	1.644981	39.303000
20.897604	1.652257	39.349000
20.922952	1.661431	39.395000
20.948267	1.670205	39.440000
20.972664	1.680995	39.486000
20.997546	1.688621	39.532000
21.022481	1.697796	39.579000
21.047581	1.705555	39.625000
21.072414	1.713032	39.671000
21.097673	1.721212	39.717000
21.122598	1.727354	39.764000
21.148207	1.734130	39.809000
21.172635	1.739226	39.855000
21.196571	1.746657	39.901000
21.221331	1.751562	39.947000
21.305132	1.758318	39.993000
21.317712	1.798199	40.147000
21.411475	1.801708	40.298000
21.436212	1.807508	40.344000
21.461831	1.813834	40.390000
21.486685	1.818013	40.435000
21.512115	1.821301	40.482000
21.536819	1.826086	40.528000
21.561339	1.828607	40.574000
21.585711	1.831645	40.620000
21.610623	1.831325	40.666000
21.636093	1.832681	40.712000
21.660853	1.832671	40.757000
21.685537	1.834198	40.803000
21.710867	1.834668	40.849000
21.735068	1.836620	40.894000
21.759179	1.837766	40.940000
21.783810	1.836690	40.986000
21.809094	1.839667	41.032000
21.899874	1.837726	41.076000
21.995541	1.834178	41.244000
22.019602	1.834458	41.421000
22.044406	1.832216	41.466000
22.069077	1.831785	41.512000
22.094156	1.829804	41.557000
22.119083	1.828628	41.603000
22.144162	1.829394	41.648000
22.168747	1.829303	41.694000
22.192451	1.830980	41.740000
22.217668	1.829373	41.786000
22.242370	1.830279	41.832000
22.267637	1.830189	41.877000
22.291999	1.832046	41.923000
22.317245	1.833032	41.969000
22.341366	1.833503	42.014000
22.365593	1.835314	42.059000
22.390774	1.835424	42.105000
22.415390	1.838297	42.151000
22.499837	1.838702	42.197000
22.590665	1.848516	42.351000
22.616084	1.849032	42.520000
22.641145	1.851269	42.566000
22.665598	1.851754	42.612000
22.690738	1.853561	42.658000
22.714951	1.855152	42.703000
22.739294	1.858480	42.748000
22.763888	1.860137	42.794000
22.788669	1.862409	42.839000
22.813919	1.864591	42.885000
22.838625	1.864821	42.931000
22.863816	1.868269	42.977000
22.887723	1.869736	43.022000
22.911927	1.874049	43.068000
22.936707	1.876893	43.114000
22.961543	1.880180	43.158000
22.986616	1.884484	43.204000
23.011883	1.887892	43.251000
23.095237	1.892052	43.297000
23.301669	1.916699	43.451000
23.326780	1.918801	43.833000
23.351832	1.921884	43.879000
23.376700	1.924410	43.925000
23.402255	1.929476	43.971000
23.426763	1.933465	44.017000
23.451515	1.935931	44.062000
23.475870	1.941206	44.108000
23.501131	1.945466	44.155000
23.525843	1.951372	44.201000
23.551341	1.953270	44.247000
23.576460	1.957364	44.293000
23.601604	1.959935	44.340000
23.802185	1.963341	44.386000
23.827346	1.997627	44.757000
23.852388	2.003718	44.803000
23.877592	2.006761	44.848000
23.902523	2.011183	44.895000
23.926660	2.015071	44.941000
23.950967	2.020309	44.987000
23.976317	2.027575	45.033000
24.001073	2.030192	45.079000
24.026864	2.034411	45.125000
24.051889	2.040153	45.171000
24.076505	2.046314	45.216000
24.100873	2.049122	45.262000
24.124967	2.054189	45.308000
24.150673	2.058606	45.354000
24.175249	2.063984	45.400000
24.200591	2.068920	45.446000
24.285061	2.072094	45.493000
24.378912	2.094855	45.646000
24.403695	2.099284	45.821000
24.428352	2.101801	45.868000
24.453338	2.105363	45.913000
24.478258	2.108558	45.959000
24.503561	2.112330	46.005000
24.528751	2.116448	46.051000
24.553498	2.119258	46.097000
24.578173	2.123805	46.142000
24.602453	2.127766	46.189000
24.627737	2.132313	46.235000
24.652330	2.136472	46.281000
24.678091	2.142113	46.327000
24.702697	2.145796	46.373000
24.728277	2.149159	46.420000
24.753320	2.155910	46.466000
24.777601	2.159718	46.511000
24.802159	2.166308	46.557000
24.885805	2.171798	46.603000
24.974129	2.201986	46.758000
24.999198	2.204173	46.921000
25.024373	2.207807	46.967000
25.049452	2.209173	47.013000
25.074546	2.212165	47.059000
25.099342	2.212751	47.105000
25.124198	2.216840	47.150000
25.148341	2.218631	47.197000
25.172990	2.220619	47.242000
25.198413	2.222991	47.288000
25.223530	2.222790	47.335000
25.248374	2.224076	47.381000
25.273643	2.223175	47.427000
25.298424	2.223021	47.473000
25.322888	2.222110	47.518000
25.346936	2.222890	47.564000
25.371934	2.220018	47.610000
25.396870	2.219152	47.655000
25.480989	2.216580	47.702000
25.569994	2.196856	47.855000
25.595052	2.191046	48.021000
25.620618	2.185226	48.067000
25.645451	2.180421	48.113000
25.670373	2.174371	48.159000
25.694624	2.171023	48.206000
25.719370	2.165489	48.251000
25.744539	2.162906	48.297000
25.769649	2.159342	48.343000
25.794583	2.157999	48.389000
25.819824	2.155370	48.435000
25.844347	2.153816	48.481000
25.868231	2.152501	48.527000
25.893324	2.153022	48.573000
25.918068	2.152552	48.618000
25.943408	2.152671	48.664000
25.968669	2.154595	48.710000
25.993591	2.155100	48.756000
26.077239	2.158803	48.802000
26.280891	2.188053	48.957000
26.305935	2.191561	49.334000
26.330777	2.194144	49.380000
26.355704	2.199118	49.425000
26.380553	2.201441	49.471000
26.404498	2.206115	49.517000
26.429523	2.208927	49.563000
26.454314	2.213402	49.609000
26.479496	2.219402	49.655000
26.505040	2.225293	49.701000
26.529654	2.228691	49.746000
26.554944	2.231428	49.792000
26.578945	2.236843	49.838000
26.781545	2.238875	49.884000
26.806435	2.276445	50.257000
26.830815	2.282415	50.302000
26.855263	2.287770	50.349000
26.880229	2.289461	50.395000
26.905404	2.294086	50.441000
26.930728	2.297594	50.487000
26.955928	2.303315	50.533000
26.980986	2.307443	50.579000
27.005417	2.311381	50.625000
27.029974	2.315065	50.670000
27.054086	2.317687	50.717000
27.079134	2.320360	50.762000
27.104225	2.322742	50.808000
27.129501	2.326776	50.854000
27.154799	2.328893	50.900000
27.179503	2.332321	50.946000
27.262208	2.332856	50.992000
27.356503	2.336344	51.147000
27.381874	2.333056	51.320000
27.406765	2.334162	51.367000
27.432412	2.332636	51.412000
27.456936	2.332786	51.458000
27.481993	2.331014	51.504000
27.505885	2.329518	51.550000
27.530778	2.326340	51.597000
27.556287	2.323928	51.643000
27.580710	2.322872	51.689000
27.606219	2.324573	51.734000
27.631237	2.327697	51.780000
27.655987	2.329508	51.826000
27.680301	2.334873	51.872000
27.704794	2.337005	51.918000
27.729397	2.338221	51.964000
27.754574	2.338301	52.009000
27.780359	2.340503	52.056000
27.864407	2.344152	52.102000
27.953266	2.365451	52.257000
27.978116	2.366688	52.421000
28.003007	2.369486	52.467000
28.028251	2.371717	52.513000
28.051823	2.375956	52.559000
28.076946	2.382621	52.604000
28.101678	2.388462	52.650000
28.126522	2.395100	52.696000
28.152079	2.399543	52.742000
28.176845	2.404665	52.788000
28.201812	2.409242	52.834000
28.226213	2.415805	52.880000
28.250911	2.421095	52.926000
28.275462	2.429171	52.972000
28.300533	2.434694	53.018000
28.325662	2.441379	53.063000
28.350481	2.449460	53.109000
28.376102	2.455832	53.155000
28.458705	2.463427	53.201000
28.549268	2.485075	53.356000
28.574431	2.488558	53.521000
28.598622	2.490392	53.568000
28.622906	2.494500	53.614000
28.647998	2.496413	53.659000
28.673154	2.499127	53.705000
28.698021	2.498757	53.751000
28.723553	2.500652	53.797000
28.748256	2.503894	53.843000
28.773058	2.506343	53.889000
28.797505	2.508552	53.934000
28.821731	2.511111	53.981000
28.847071	2.512135	54.026000
28.872077	2.514503	54.072000
28.897511	2.519091	54.118000
28.922436	2.521399	54.164000
28.947401	2.523074	54.210000
28.972223	2.525766	54.256000
29.055319	2.530583	54.302000
29.259565	2.587680	54.456000
29.285176	2.596349	54.834000
29.310158	2.602950	54.880000
29.334219	2.613445	54.926000
29.358827	2.619690	54.972000
29.384179	2.629689	55.018000
29.409148	2.635220	55.064000
29.434701	2.643732	55.110000
29.459519	2.652005	55.157000
29.485289	2.660848	55.202000
29.508943	2.670216	55.248000
29.533434	2.679355	55.294000
29.558297	2.689429	55.340000
29.759149	2.697702	55.386000
29.784489	2.754810	55.757000
29.808851	2.761786	55.803000
29.834310	2.772641	55.849000
29.859476	2.778231	55.896000
29.884890	2.786703	55.942000
29.909664	2.791653	55.987000
29.934414	2.800106	56.033000
29.959047	2.807023	56.079000
29.983250	2.814634	56.125000
30.008485	2.822764	56.171000
30.033001	2.830469	56.217000
30.058137	2.838689	56.262000
30.083212	2.846950	56.309000
30.108074	2.856990	56.354000
30.132801	2.863012	56.400000
30.156902	2.872086	56.446000
30.241391	2.878248	56.492000
30.335890	2.921993	56.647000
30.361190	2.927904	56.821000
30.385921	2.935744	56.867000
30.410641	2.939708	56.913000
30.435118	2.943884	56.959000
30.459500	2.947507	57.005000
30.484696	2.951740	57.051000
30.509490	2.955807	57.097000
30.534967	2.959210	57.143000
30.559769	2.962018	57.188000
30.584602	2.963393	57.234000
30.609267	2.964792	57.280000
30.633522	2.965112	57.326000
30.658324	2.965503	57.372000
30.683590	2.964258	57.418000
30.708824	2.966457	57.464000
30.733982	2.967351	57.510000
30.759030	2.967611	57.556000
30.842409	2.969449	57.602000
30.931890	2.963698	57.756000
30.957044	2.961064	57.921000
30.981356	2.962744	57.968000
31.006187	2.962514	58.014000
31.030911	2.963423	58.060000
31.055555	2.964487	58.106000
31.081239	2.965802	58.151000
31.105878	2.968936	58.197000
31.131212	2.969419	58.243000
31.155740	2.971969	58.289000
31.179883	2.970965	58.335000
31.204837	2.972019	58.381000
31.229653	2.970080	58.427000
31.254951	2.971175	58.473000
31.279999	2.970259	58.518000
31.305210	2.969490	58.564000
31.329858	2.971075	58.610000
31.354613	2.972109	58.656000
31.437892	2.973614	58.702000
31.526451	2.981493	58.856000
31.551363	2.982387	59.021000
31.576417	2.984490	59.067000
31.601594	2.986994	59.112000
31.626012	2.988228	59.158000
31.651774	2.991278	59.204000
31.676311	2.993186	59.250000
31.700812	2.995965	59.296000
31.725485	2.998693	59.342000
31.750603	3.000992	59.387000
31.775595	3.003220	59.435000
31.800833	3.005558	59.480000
31.825889	3.008232	59.527000
31.850762	3.010047	59.573000
31.875968	3.012789	59.618000
31.900561	3.011825	59.664000
31.925034	3.014183	59.711000
31.950382	3.014993	59.757000
32.034518	3.019825	59.803000
32.237803	3.068212	59.958000
32.262229	3.072832	60.334000
32.287108	3.077901	60.380000
32.312690	3.083276	60.426000
32.337438	3.086044	60.471000
32.362724	3.091528	60.517000
32.387150	3.095502	60.563000
32.412613	3.099671	60.609000
32.437069	3.102304	60.655000
32.461568	3.107313	60.702000
32.486547	3.111522	60.748000
32.511330	3.116497	60.794000
32.537135	3.122742	60.838000
32.737535	3.126821	60.885000
32.762683	3.160753	61.257000
32.789398	3.163650	61.306000
32.814243	3.166923	61.352000
32.839414	3.169540	61.398000
32.864904	3.173179	61.444000
32.889345	3.174586	61.489000
32.913302	3.178919	61.535000
32.938069	3.180285	61.581000
32.963325	3.183218	61.627000
32.987831	3.183469	61.672000
33.013114	3.183489	61.718000
33.037681	3.185840	61.763000
33.062814	3.186586	61.809000
33.086448	3.188638	61.855000
33.111147	3.188868	61.901000
33.136375	3.190720	61.947000
33.220075	3.190990	61.992000
33.314635	3.191651	62.147000
33.338915	3.191866	62.321000
33.363314	3.194138	62.367000
33.387916	3.194419	62.412000
33.413310	3.196065	62.457000
33.438546	3.196470	62.504000
33.463460	3.199423	62.549000
33.488500	3.202831	62.595000
33.512680	3.205614	62.641000
33.538113	3.208190	62.687000
33.581044	3.212835	62.765000
33.605577	3.213496	62.813000
33.636914	3.216735	62.870000
33.662946	3.218050	62.917000
33.688424	3.221609	62.964000
33.713484	3.222654	63.010000
33.737487	3.225912	63.056000
33.821094	3.225357	63.102000
33.909600	3.229376	63.256000
33.934683	3.230602	63.421000
33.959250	3.232830	63.467000
33.984095	3.233334	63.513000
34.009673	3.235528	63.557000
34.034268	3.233674	63.603000
34.058905	3.235049	63.649000
34.083212	3.234849	63.695000
34.107952	3.235319	63.741000
34.132889	3.234989	63.787000
34.157568	3.235793	63.833000
34.183123	3.238682	63.879000
34.207572	3.238412	63.924000
34.232655	3.240477	63.969000
34.256911	3.242157	64.015000
34.281153	3.244874	64.061000
34.306043	3.246364	64.107000
34.330976	3.247128	64.152000
34.415494	3.249063	64.198000
34.505356	3.268906	64.353000
34.530531	3.269900	64.521000
34.555640	3.272348	64.567000
34.581380	3.271863	64.613000
34.605875	3.274667	64.660000
34.630727	3.278689	64.704000
34.655310	3.282607	64.751000
34.679893	3.285496	64.797000
34.704630	3.286899	64.843000
34.729598	3.289218	64.889000
34.754507	3.287455	64.934000
34.779821	3.287405	64.980000
34.804465	3.283088	65.025000
34.828910	3.282342	65.071000
34.853205	3.280749	65.117000
34.878457	3.279104	65.163000
34.903075	3.277206	65.209000
34.928557	3.276611	65.255000
35.012445	3.276300	65.301000
35.216268	3.264737	65.456000
35.241031	3.261479	65.834000
35.266379	3.260964	65.880000
35.291231	3.258795	65.925000
35.316721	3.256962	65.971000
35.342979	3.254333	66.019000
35.367712	3.251310	66.065000
35.391685	3.249836	66.111000
35.416572	3.245679	66.157000
35.451101	3.241052	66.220000
35.481831	3.236967	66.277000
35.506249	3.229756	66.322000
35.717214	3.223970	66.368000
35.741743	3.174635	66.756000
35.766753	3.169206	66.802000
35.790675	3.162494	66.848000
35.815232	3.157395	66.894000
35.840107	3.150753	66.939000
35.865182	3.145104	66.985000
35.890284	3.139433	67.031000
35.915954	3.134419	67.077000
35.941125	3.128328	67.124000
35.965128	3.122087	67.169000
35.989527	3.119435	67.215000
36.014652	3.113555	67.261000
36.039212	3.107914	67.307000
36.064394	3.102144	67.353000
36.089366	3.097895	67.398000
36.114410	3.092174	67.444000
36.196961	3.088626	67.490000
36.292443	3.045651	67.644000
36.317249	3.039591	67.821000
36.342628	3.031594	67.867000
36.367587	3.025317	67.913000
36.392286	3.017311	67.958000
36.417588	3.011460	68.003000
36.442597	3.003339	68.050000
36.467315	2.995734	68.096000
36.491387	2.986459	68.142000
36.516428	2.976444	68.188000
36.541499	2.968019	68.234000
36.566474	2.957775	68.280000
36.591848	2.950076	68.326000
36.616090	2.938651	68.371000
36.641510	2.930826	68.417000
36.665398	2.920808	68.463000
36.690135	2.909568	68.509000
36.715448	2.898130	68.555000
36.799344	2.886557	68.601000
36.888722	2.819450	68.756000
36.913720	2.809189	68.921000
36.938991	2.797642	68.968000
36.963658	2.789590	69.014000
36.989636	2.780883	69.060000
37.013908	2.770913	69.106000
37.038161	2.761374	69.152000
37.063002	2.752106	69.198000
37.088050	2.743228	69.244000
37.112829	2.734866	69.289000
37.138246	2.726988	69.335000
37.163206	2.716453	69.381000
37.188173	2.708741	69.427000
37.211823	2.697045	69.473000
37.236406	2.690130	69.519000
37.261727	2.680110	69.565000
37.286982	2.673274	69.611000
37.311677	2.665221	69.656000
37.396310	2.657584	69.702000
37.484654	2.598680	69.857000
37.510217	2.587649	70.021000
37.534923	2.575916	70.067000
37.559003	2.565587	70.113000
37.584171	2.553446	70.158000
37.608396	2.541462	70.205000
37.634044	2.529509	70.250000
37.659234	2.516882	70.296000
37.684298	2.506631	70.342000
37.709480	2.495213	70.388000
37.733602	2.485828	70.434000
37.758612	2.474831	70.480000
37.782638	2.467494	70.526000
37.807920	2.458518	70.571000
37.833399	2.451164	70.617000
37.858270	2.443567	70.663000
37.883015	2.436206	70.709000
37.907533	2.429010	70.755000
37.990587	2.421275	70.801000
38.195850	2.374044	70.955000
38.221494	2.370991	71.334000
38.246077	2.366922	71.378000
38.270004	2.362007	71.424000
38.295125	2.356072	71.470000
38.319908	2.350091	71.516000
38.344787	2.342765	71.562000
38.369608	2.336254	71.608000
38.395010	2.332481	71.654000
38.419185	2.328001	71.700000
38.444241	2.324278	71.745000
38.468871	2.321385	71.791000
38.493100	2.319759	71.837000
38.696942	2.317202	71.884000
38.721791	2.301442	72.257000
38.745621	2.296488	72.303000
38.770719	2.295061	72.349000
38.796059	2.294676	72.395000
38.821165	2.294005	72.441000
38.845391	2.291864	72.487000
38.871184	2.290757	72.532000
38.895525	2.291378	72.578000
38.919448	2.288376	72.624000
38.944730	2.287970	72.670000
38.969770	2.287319	72.716000
38.994557	2.288726	72.762000
39.019052	2.287229	72.808000
39.045053	2.287840	72.854000
39.069648	2.288165	72.900000
39.103655	2.287259	72.963000
39.186651	2.284977	73.009000
39.272076	2.285197	73.163000
39.297627	2.283871	73.321000
39.322921	2.284707	73.366000
39.347589	2.282865	73.412000
39.372322	2.281909	73.459000
39.397190	2.280022	73.505000
39.420916	2.279742	73.550000
39.447950	2.280092	73.596000
39.473498	2.278936	73.646000
39.497593	2.278886	73.692000
39.522561	2.278616	73.737000
39.547993	2.278766	73.783000
39.573367	2.279117	73.829000
39.598212	2.281078	73.876000
39.622972	2.280222	73.921000
39.647032	2.282314	73.967000
39.671731	2.285953	74.013000
39.696579	2.288295	74.059000
39.780817	2.291824	74.105000
39.868758	2.331095	74.258000
39.893675	2.335969	74.421000
39.918116	2.342205	74.467000
39.942335	2.349762	74.512000
39.967083	2.361533	74.558000
39.992050	2.371487	74.603000
40.017283	2.378034	74.649000
40.041805	2.386787	74.695000
40.066676	2.392248	74.740000
40.091482	2.397990	74.786000
40.115931	2.401272	74.832000
40.139477	2.408138	74.878000
40.164978	2.412270	74.924000
40.190191	2.417008	74.968000
40.215493	2.421536	75.014000
40.239504	2.425683	75.060000
40.264590	2.428102	75.106000
40.288701	2.429356	75.152000
40.372458	2.430931	75.197000
40.464422	2.429967	75.353000
40.488375	2.431260	75.521000
40.516419	2.434063	75.571000
40.541502	2.432919	75.616000
40.565086	2.432989	75.663000
40.590538	2.434233	75.709000
40.615620	2.433189	75.755000
40.640196	2.435588	75.801000
40.665359	2.434044	75.847000
40.690853	2.436177	75.892000
40.714568	2.435167	75.938000
40.738583	2.435987	75.983000
40.764510	2.433578	76.029000
40.788994	2.433259	76.075000
40.813742	2.434063	76.122000
40.827204	2.434454	76.168000
40.864668	2.433898	76.214000
40.889155	2.432674	76.260000
40.972121	2.435158	76.306000
41.175087	2.451618	76.460000
41.199878	2.453503	76.833000
41.224634	2.454708	76.879000
41.248680	2.457720	76.925000
41.273716	2.460429	76.971000
41.299433	2.463257	77.017000
41.323962	2.463046	77.063000
41.348649	2.464766	77.109000
41.373786	2.465585	77.154000
41.398100	2.466710	77.200000
41.422572	2.468399	77.246000
41.447869	2.470457	77.292000
41.472741	2.473866	77.338000
41.674224	2.477623	77.384000
41.699541	2.518800	77.757000
41.724643	2.526177	77.803000
41.749072	2.532852	77.849000
41.773978	2.539354	77.895000
41.800044	2.548098	77.941000
41.823928	2.554501	77.986000
41.848024	2.564303	78.032000
41.873114	2.571179	78.078000
41.898408	2.580266	78.124000
41.923272	2.587302	78.170000
41.948569	2.596108	78.216000
41.973771	2.603365	78.262000
41.997974	2.611678	78.308000
42.022315	2.618804	78.353000
42.047221	2.627057	78.399000
42.071716	2.636656	78.445000
42.157006	2.640990	78.491000
42.251459	2.682108	78.646000
42.276472	2.691586	78.821000
42.301494	2.698847	78.867000
42.325796	2.706170	78.913000
42.349926	2.714152	78.959000
42.378171	2.725157	79.010000
42.404325	2.732414	79.058000
42.428613	2.739896	79.103000
42.453530	2.748038	79.149000
42.478478	2.755495	79.195000
42.503453	2.763647	79.241000
42.528179	2.770228	79.287000
42.553692	2.778876	79.333000
42.581406	2.786694	79.378000
42.606081	2.796957	79.430000
42.631402	2.804273	79.476000
42.656554	2.814523	79.522000
42.751610	2.822048	79.568000
42.846723	2.876692	79.745000
42.871979	2.885562	79.921000
42.895794	2.893313	79.967000
42.920711	2.902508	80.012000
42.962086	2.909488	80.057000
42.986889	2.920447	80.133000
43.013239	2.926560	80.179000
43.037769	2.933155	80.227000
43.061326	2.937902	80.272000
43.086862	2.944245	80.318000
43.111599	2.950016	80.363000
43.136382	2.956581	80.410000
43.161756	2.963473	80.456000
43.187077	2.969339	80.502000
43.211584	2.977514	80.548000
43.236228	2.983701	80.594000
43.260808	2.993765	80.640000
43.346947	3.000771	80.686000
43.442537	3.064349	80.844000
43.466813	3.076996	81.021000
43.492306	3.089833	81.068000
43.517900	3.101974	81.114000
43.542821	3.114230	81.159000
43.567720	3.124119	81.206000
43.593359	3.137917	81.251000
43.617455	3.149402	81.298000
43.641588	3.161123	81.344000
43.666913	3.173459	81.390000
43.691873	3.185730	81.436000
43.716391	3.198377	81.481000
43.741585	3.209307	81.527000
43.766932	3.222029	81.573000
43.791039	3.234628	81.619000
43.815135	3.247167	81.665000
43.840574	3.256752	81.711000
43.865907	3.269077	81.757000
43.949461	3.278241	81.802000
44.153326	3.388682	81.957000
44.177613	3.397193	82.334000
44.203422	3.406127	82.380000
44.228262	3.412329	82.426000
44.252846	3.421944	82.472000
44.277836	3.427124	82.518000
44.303414	3.434080	82.563000
44.327387	3.440072	82.610000
44.351624	3.447148	82.655000
44.377237	3.453357	82.701000
44.402131	3.460754	82.747000
44.427072	3.468196	82.793000
44.452385	3.473350	82.839000
44.653334	3.482449	82.885000
44.678517	3.545712	83.257000
44.703895	3.557218	83.302000
44.729112	3.569499	83.350000
44.753146	3.579584	83.395000
44.777672	3.587996	83.441000
44.802847	3.598000	83.487000
44.827614	3.606322	83.533000
44.852762	3.615981	83.579000
44.877914	3.625811	83.625000
44.902651	3.637382	83.670000
44.927276	3.649313	83.716000
44.952079	3.662212	83.762000
44.976750	3.674581	83.808000
45.000918	3.686943	83.854000
45.027373	3.699772	83.900000
45.052739	3.710994	83.946000
45.135801	3.724243	83.992000
45.231499	3.795098	84.146000
45.255798	3.805476	84.322000
45.280873	3.817270	84.367000
45.305383	3.827439	84.414000
45.330308	3.836567	84.460000
45.355210	3.847107	84.506000
45.381395	3.855962	84.552000
45.405748	3.866860	84.598000
45.429928	3.875385	84.644000
45.454815	3.886101	84.690000
45.479118	3.895458	84.735000
45.504073	3.906594	84.781000
45.529271	3.914446	84.827000
45.554615	3.923279	84.873000
45.579045	3.932217	84.919000
45.603966	3.938909	84.965000
45.629579	3.948107	85.011000
45.653244	3.952912	85.056000
45.737935	3.960158	85.102000
45.825664	3.980676	85.257000
45.851446	3.983744	85.421000
45.876233	3.984210	85.467000
45.900593	3.988028	85.513000
45.925968	3.990861	85.558000
45.951404	3.996796	85.604000
45.975573	4.001126	85.650000
45.999349	4.007306	85.696000
46.014543	4.017560	85.744000
46.050874	4.020989	85.790000
46.075415	4.028811	85.836000
46.100936	4.036823	85.881000
46.125984	4.045216	85.927000
46.150275	4.051827	85.973000
46.174743	4.059889	86.019000
46.199392	4.064814	86.064000
46.223756	4.074687	86.110000
46.248328	4.080398	86.155000
46.332915	4.086705	86.201000
46.421851	4.123905	86.356000
46.447390	4.131031	86.522000
46.472166	4.134995	86.568000
46.497118	4.138097	86.614000
46.522466	4.141880	86.659000
46.546150	4.145444	86.705000
46.570502	4.148876	86.751000
46.596073	4.149496	86.797000
46.621440	4.149836	86.843000
46.645854	4.148806	86.889000
46.671663	4.151984	86.935000
46.696238	4.152910	86.981000
46.719907	4.155567	87.027000
46.744944	4.157367	87.072000
46.770161	4.161130	87.118000
46.794479	4.163109	87.164000
46.819527	4.163449	87.210000
46.923073	4.164243	87.255000
47.132659	4.147862	87.445000
47.158022	4.145764	87.834000
47.182459	4.143754	87.880000
47.208387	4.141920	87.925000
47.232133	4.140947	87.972000
47.256432	4.140867	88.017000
47.281779	4.141215	88.063000
47.307146	4.138407	88.109000
47.331545	4.138387	88.155000
47.356336	4.136678	88.201000
47.382175	4.136279	88.247000
47.407004	4.135134	88.293000
47.430496	4.136658	88.339000
47.633670	4.138257	88.384000
47.658933	4.158057	88.757000
47.682813	4.160185	88.803000
47.707254	4.161579	88.849000
47.732418	4.164213	88.895000
47.757224	4.166316	88.941000
47.782698	4.169421	88.988000
47.807812	4.170984	89.033000
47.832307	4.172764	89.079000
47.857739	4.175836	89.125000
47.882729	4.181552	89.171000
47.906617	4.185301	89.217000
47.931108	4.187730	89.263000
47.956944	4.191628	89.309000
47.981892	4.194466	89.355000
48.005972	4.200337	89.401000
48.031681	4.205399	89.446000
48.114132	4.209792	89.492000
48.209115	4.251437	89.647000
48.234443	4.256929	89.821000
48.259153	4.264616	89.867000
48.284459	4.271900	89.913000
48.309845	4.276923	89.960000
48.334582	4.284679	90.006000
48.358984	4.290944	90.052000
48.383979	4.298989	90.098000
48.407759	4.307107	90.144000
48.433184	4.314889	90.190000
48.458497	4.321390	90.235000
48.483791	4.329707	90.281000
48.508097	4.336438	90.327000
48.533188	4.344491	90.373000
48.559085	4.352553	90.419000
48.582350	4.360515	90.465000
48.607606	4.370295	90.511000
48.632738	4.379863	90.557000
48.717068	4.390248	90.603000
48.805044	4.449097	90.758000
48.829903	4.456465	90.921000
48.855970	4.463030	90.968000
48.880238	4.468740	91.014000
48.904817	4.472115	91.060000
48.929112	4.475712	91.105000
48.954291	4.477744	91.151000
48.978670	4.480491	91.197000
49.003488	4.485806	91.243000
49.029258	4.490821	91.288000
49.054076	4.494179	91.334000
49.078217	4.497677	91.380000
49.102758	4.500664	91.426000
49.127826	4.502281	91.471000
49.152343	4.505459	91.518000
49.177760	4.508052	91.563000
49.203189	4.511225	91.609000
49.227810	4.514029	91.655000
49.311522	4.515884	91.701000
49.401092	4.526633	91.856000
49.426697	4.526683	92.022000
49.450769	4.527399	92.068000
49.474910	4.528961	92.114000
49.500539	4.529398	92.160000
49.525064	4.529437	92.206000
49.550481	4.528393	92.252000
49.575502	4.527109	92.297000
49.601614	4.526115	92.344000
49.626447	4.523172	92.390000
49.650596	4.520251	92.436000
49.674830	4.518926	92.482000
49.699917	4.517802	92.528000
49.724200	4.516218	92.574000
49.749667	4.514189	92.619000
49.775303	4.513405	92.666000
49.799260	4.514399	92.711000
49.824600	4.514889	92.757000
49.907228	4.516718	92.803000
50.111980	4.522822	92.959000
50.137351	4.522952	93.334000
50.161508	4.521655	93.379000
50.185388	4.521255	93.425000
50.210670	4.519325	93.471000
50.235826	4.519396	93.517000
50.260436	4.521615	93.563000
50.285938	4.522642	93.609000
50.311066	4.523466	93.654000
50.334839	4.524940	93.700000
50.359802	4.528173	93.746000
50.384071	4.528333	93.792000
50.409134	4.528203	93.838000
50.611647	4.528353	93.884000
50.636595	4.512550	94.257000
50.660925	4.512745	94.303000
50.686292	4.510945	94.350000
50.711935	4.510364	94.396000
50.737006	4.510354	94.441000
50.761478	4.510574	94.487000
50.786530	4.510765	94.533000
50.811040	4.510765	94.579000
50.835285	4.511901	94.625000
50.860606	4.513196	94.671000
50.886630	4.513366	94.716000
50.910683	4.512635	94.763000
50.935923	4.512321	94.809000
50.961655	4.511831	94.855000
50.985770	4.510030	94.901000
51.010053	4.509359	94.947000
51.093288	4.508433	94.993000
51.192140	4.507316	95.147000
51.216850	4.505349	95.329000
51.241909	4.504784	95.375000
51.266688	4.505179	95.421000
51.291652	4.507146	95.467000
51.317057	4.508162	95.513000
51.341979	4.508233	95.559000
51.366700	4.509688	95.605000
51.391433	4.510404	95.651000
51.415636	4.511660	95.697000
51.440488	4.510564	95.742000
51.466020	4.509348	95.788000
51.490834	4.510994	95.834000
51.515813	4.510294	95.880000
51.540680	4.509419	95.926000
51.565609	4.508242	95.972000
51.589766	4.506280	96.018000
51.614338	4.503838	96.064000
51.698449	4.502452	96.109000
51.784845	4.492242	96.263000
51.809406	4.490861	96.422000
51.833808	4.488634	96.468000
51.858418	4.486401	96.514000
51.883539	4.483815	96.560000
51.908338	4.482558	96.606000
51.933997	4.479796	96.652000
51.959287	4.477774	96.699000
51.983805	4.475462	96.745000
52.009463	4.475622	96.791000
52.034193	4.475906	96.837000
52.058269	4.475707	96.883000
52.082760	4.475552	96.929000
52.107892	4.473835	96.975000
52.133125	4.470337	97.020000
52.157758	4.467199	97.066000
52.183440	4.465262	97.112000
52.208234	4.464627	97.158000
52.290805	4.464797	97.204000
52.379898	4.458976	97.358000
52.403859	4.456825	97.521000
52.429095	4.455428	97.568000
52.454124	4.453327	97.613000
52.478854	4.450915	97.659000
52.504082	4.448443	97.705000
52.529537	4.444394	97.751000
52.553721	4.442241	97.796000
52.578781	4.440675	97.843000
52.603929	4.437327	97.889000
52.628128	4.435575	97.935000
52.653610	4.431706	97.981000
52.678869	4.427838	98.027000
52.703990	4.423824	98.073000
52.728320	4.417784	98.119000
52.753307	4.414690	98.164000
52.777621	4.409296	98.210000
52.802266	4.404071	98.256000
52.887344	4.400057	98.302000
53.089938	4.361457	98.457000
53.115505	4.357238	98.834000
53.140837	4.354956	98.881000
53.164948	4.351998	98.926000
53.190330	4.348431	98.972000
53.215693	4.346803	99.018000
53.241191	4.344011	99.064000
53.264936	4.340994	99.110000
53.290426	4.338922	99.156000
53.314080	4.337175	99.202000
53.339036	4.336370	99.247000
53.364837	4.333152	99.293000
53.389670	4.330198	99.339000
53.590327	4.328772	99.385000
53.616001	4.310941	99.758000
53.641038	4.308163	99.804000
53.665978	4.305791	99.850000
53.691045	4.305270	99.896000
53.716397	4.303477	99.942000
53.740392	4.303018	99.988000
53.764768	4.299815	100.034000
53.790339	4.297960	100.081000
53.815940	4.295771	100.126000
53.840677	4.292878	100.173000
53.866363	4.292128	100.219000
53.891403	4.289327	100.265000
53.916094	4.287551	100.311000
53.941146	4.283909	100.358000
53.966167	4.280336	100.404000
53.989832	4.278387	100.450000
54.074796	4.276179	100.496000
54.167197	4.263291	100.650000
54.192602	4.259267	100.821000
54.218107	4.257129	100.868000
54.242476	4.256084	100.914000
54.266847	4.253996	100.960000
54.292176	4.252472	101.006000
54.316971	4.251887	101.052000
54.341992	4.250622	101.098000
54.367289	4.249448	101.144000
54.392653	4.247684	101.190000
54.416779	4.244941	101.235000
54.441197	4.242612	101.281000
54.466648	4.238760	101.328000
54.490855	4.237636	101.374000
54.516302	4.236231	101.420000
54.541623	4.233542	101.466000
54.566372	4.231484	101.512000
54.590786	4.229446	101.558000
54.674628	4.229644	101.603000
54.763022	4.226576	101.759000
54.787763	4.226547	101.922000
54.812204	4.225442	101.968000
54.837713	4.223584	102.014000
54.863460	4.222739	102.060000
54.888454	4.223843	102.107000
54.913307	4.225078	102.152000
54.938316	4.225182	102.198000
54.963368	4.226587	102.244000
54.986676	4.225412	102.290000
55.012658	4.226707	102.336000
55.037467	4.227781	102.382000
55.062439	4.225803	102.428000
55.086857	4.225833	102.474000
55.112600	4.226326	102.520000
55.137614	4.228112	102.566000
55.161056	4.229939	102.612000
55.186112	4.232618	102.658000
55.269942	4.233933	102.704000
55.358962	4.243962	102.859000
55.383085	4.246901	103.021000
55.408394	4.249220	103.067000
55.433672	4.252612	103.113000
55.458832	4.255262	103.159000
55.482708	4.257658	103.205000
55.507680	4.261371	103.251000
55.531940	4.264744	103.297000
55.556907	4.267849	103.343000
55.593116	4.269273	103.388000
55.619047	4.276039	103.458000
55.644822	4.278238	103.503000
55.669493	4.281771	103.549000
55.694303	4.285624	103.596000
55.720189	4.291005	103.642000
55.744960	4.295317	103.688000
55.769148	4.297911	103.733000
55.859086	4.301298	103.779000
56.069213	4.344020	103.945000
56.094054	4.348605	104.334000
56.119598	4.352783	104.380000
56.144112	4.356432	104.426000
56.169563	4.360320	104.472000
56.193612	4.362413	104.517000
56.218169	4.365150	104.563000
56.242518	4.367407	104.609000
56.267758	4.370765	104.655000
56.293144	4.372817	104.701000
56.318373	4.376866	104.747000
56.342937	4.379633	104.793000
56.368576	4.382871	104.839000
56.569994	4.385203	104.884000
56.594328	4.403979	105.257000
56.620175	4.407093	105.304000
56.644958	4.409616	105.349000
56.668554	4.412598	105.395000
56.693959	4.413774	105.441000
56.718788	4.414254	105.486000
56.743636	4.416147	105.534000
56.768842	4.417372	105.579000
56.793890	4.418980	105.625000
56.819368	4.419604	105.671000
56.843222	4.418910	105.717000
56.867828	4.420135	105.763000
56.893010	4.419945	105.809000
56.917344	4.419634	105.854000
56.942730	4.418158	105.900000
56.967963	4.417883	105.946000
57.051908	4.418449	105.993000
57.145877	4.408430	106.147000
57.170437	4.405487	106.322000
57.195608	4.405297	106.368000
57.221021	4.405367	106.414000
57.245516	4.405587	106.460000
57.270479	4.406077	106.506000
57.296184	4.405256	106.552000
57.320095	4.403980	106.598000
57.344567	4.401698	106.643000
57.369996	4.401658	106.689000
57.394775	4.399031	106.735000
57.419070	4.398770	106.781000
57.444391	4.397895	106.827000
57.470042	4.397154	106.872000
57.493745	4.396348	106.918000
57.518432	4.395574	106.964000
57.543523	4.394512	107.010000
57.567818	4.392720	107.056000
57.652486	4.391865	107.102000
57.740661	4.397475	107.255000
57.766835	4.398440	107.422000
57.791571	4.401373	107.468000
57.816804	4.403284	107.514000
57.841610	4.405937	107.560000
57.866689	4.408589	107.606000
57.890373	4.410255	107.651000
57.915071	4.412508	107.698000
57.941126	4.413694	107.744000
57.965656	4.416386	107.789000
57.990654	4.418819	107.835000
58.015844	4.420950	107.881000
58.040346	4.422067	107.927000
58.064668	4.425364	107.973000
58.088814	4.427647	108.018000
58.114457	4.429103	108.064000
58.139236	4.429824	108.110000
58.164265	4.430560	108.156000
58.248445	4.431296	108.202000
58.337635	4.439479	108.357000
58.362863	4.441144	108.522000
58.387043	4.443889	108.568000
58.411987	4.447006	108.614000
58.436598	4.448947	108.659000
58.461396	4.452576	108.705000
58.485983	4.455519	108.751000
58.511853	4.458647	108.797000
58.536663	4.461714	108.843000
58.561427	4.464958	108.889000
58.586621	4.470247	108.935000
58.610167	4.473435	108.980000
58.635031	4.479555	109.026000
58.660305	4.486442	109.072000
58.685722	4.493288	109.118000
58.710010	4.499578	109.164000
58.734777	4.506545	109.210000
58.760674	4.511680	109.256000
58.843141	4.517067	109.302000
59.048450	4.566594	109.456000
59.073130	4.567859	109.834000
59.098216	4.570967	109.880000
59.123591	4.574031	109.926000
59.147801	4.575744	109.973000
59.172146	4.577523	110.019000
59.197244	4.577079	110.065000
59.222823	4.579532	110.110000
59.247225	4.582131	110.156000
59.272631	4.584249	110.202000
59.297963	4.587279	110.248000
59.321862	4.590792	110.294000
59.346035	4.594375	110.340000
59.548643	4.597417	110.385000
59.573273	4.621628	110.758000
59.596984	4.627211	110.803000
59.622543	4.634526	110.849000
59.647641	4.640752	110.895000
59.672028	4.649423	110.941000
59.697268	4.657203	110.987000
59.722362	4.663754	111.033000
59.746104	4.671275	111.078000
59.770834	4.677297	111.124000
59.795536	4.685022	111.169000
59.820411	4.691419	111.215000
59.845267	4.698654	111.261000
59.871633	4.704856	111.307000
59.896389	4.710797	111.353000
59.920749	4.716240	111.399000
59.945283	4.722835	111.445000
60.028802	4.728786	111.491000
60.124269	4.772840	111.645000
60.149090	4.781123	111.822000
60.173888	4.789736	111.868000
60.198963	4.797538	111.915000
60.224803	4.807982	111.960000
60.248433	4.815179	112.006000
60.273627	4.823892	112.052000
60.298414	4.832365	112.098000
60.322924	4.841933	112.144000
60.348518	4.851662	112.190000
60.373739	4.861926	112.236000
60.399617	4.871166	112.283000
60.423912	4.878893	112.329000
60.449064	4.887115	112.374000
60.473766	4.893505	112.420000
60.497243	4.902474	112.466000
60.523117	4.910987	112.512000
60.547873	4.919675	112.558000
60.632172	4.927131	112.604000
60.720390	4.971010	112.758000
60.745399	4.977217	112.922000
60.770159	4.983867	112.968000
60.795180	4.989430	113.014000
60.818772	4.995552	113.060000
60.843721	5.001103	113.105000
60.869207	5.007684	113.151000
60.893967	5.014472	113.197000
60.918992	5.020562	113.243000
60.944743	5.027329	113.289000
60.969191	5.031596	113.335000
60.992822	5.037398	113.381000
61.017882	5.043124	113.427000
61.043122	5.049386	113.473000
61.067709	5.055696	113.518000
61.093421	5.061169	113.565000
61.118347	5.066800	113.610000
61.142864	5.072662	113.656000
61.226376	5.077204	113.702000
61.315539	5.123329	113.857000
61.341098	5.128056	114.022000
61.365277	5.134398	114.068000
61.389911	5.141004	114.113000
61.415362	5.147740	114.159000
61.440214	5.156190	114.205000
61.465155	5.161303	114.251000
61.489922	5.169106	114.297000
61.515186	5.174755	114.343000
61.538993	5.181236	114.389000
61.563780	5.186442	114.435000
61.589081	5.192172	114.481000
61.613722	5.196916	114.526000
61.638659	5.200870	114.572000
61.664252	5.205865	114.618000
61.688932	5.209883	114.664000
61.712796	5.214427	114.710000
61.737867	5.217545	114.756000
61.821579	5.223496	114.802000
62.026988	5.247803	114.957000
62.052486	5.248323	115.335000
62.076278	5.251075	115.381000
62.101076	5.253007	115.427000
62.126255	5.251920	115.473000
62.151733	5.253682	115.519000
62.175786	5.253177	115.564000
62.201537	5.253557	115.610000
62.226554	5.254002	115.656000
62.249835	5.255728	115.702000
62.275425	5.256895	115.748000
62.300116	5.258786	115.794000
62.325122	5.258707	115.839000
62.526513	5.258102	115.885000
62.551334	5.264652	116.258000
62.576152	5.266209	116.303000
62.600673	5.267941	116.349000
62.626809	5.270382	116.395000
62.651634	5.270663	116.441000
62.675203	5.270773	116.486000
62.700163	5.271264	116.532000
62.725637	5.273035	116.579000
62.749978	5.274761	116.625000
62.775391	5.276423	116.671000
62.800854	5.279631	116.716000
62.825107	5.282974	116.762000
62.849740	5.284506	116.808000
62.874977	5.286473	116.854000
62.898711	5.288043	116.900000
62.923521	5.290425	116.946000
63.008143	5.293289	116.992000
63.102918	5.312266	117.146000
63.128558	5.314359	117.322000
63.153141	5.317245	117.367000
63.176848	5.322211	117.413000
63.202069	5.327025	117.459000
63.226879	5.330883	117.505000
63.251712	5.335628	117.551000
63.277451	5.339116	117.597000
63.302165	5.343015	117.642000
63.327152	5.345803	117.688000
63.351854	5.350031	117.734000
63.376291	5.355421	117.781000
63.400767	5.360751	117.827000
63.425512	5.366086	117.873000
63.451051	5.370763	117.918000
63.476084	5.376011	117.963000
63.500833	5.380949	118.010000
63.525865	5.384592	118.056000
63.608547	5.388039	118.102000
63.699515	5.416704	118.257000
63.723657	5.421320	118.422000
63.748025	5.426497	118.468000
63.773142	5.431629	118.514000
63.798559	5.436878	118.560000
63.822731	5.442937	118.605000
63.848432	5.450568	118.651000
63.873300	5.455636	118.697000
63.897353	5.462532	118.743000
63.922163	5.469608	118.789000
63.947545	5.476669	118.835000
63.971886	5.481885	118.882000
63.997372	5.487067	118.928000
64.023185	5.494394	118.974000
64.048233	5.497797	119.020000
64.072551	5.504813	119.066000
64.098006	5.511463	119.112000
64.123258	5.516906	119.159000
64.206362	5.522977	119.204000
64.294069	5.560961	119.359000
64.319674	5.567796	119.523000
64.344699	5.575573	119.568000
64.369459	5.582449	119.614000
64.394315	5.591068	119.660000
64.419428	5.598961	119.706000
64.444741	5.607729	119.752000
64.468391	5.616591	119.798000
64.494031	5.625500	119.844000
64.518664	5.635960	119.891000
64.543435	5.645543	119.936000
64.569121	5.655522	119.982000
64.594185	5.665421	120.029000
64.619855	5.676662	120.075000
64.644273	5.685296	120.121000
64.669237	5.693692	120.167000
64.692786	5.701725	120.212000
64.717589	5.709297	120.259000
64.802521	5.717064	120.304000
65.004573	5.795617	120.459000
65.030282	5.800454	120.835000
65.055092	5.807039	120.881000
65.079963	5.814638	120.927000
65.105242	5.822267	120.973000
65.130305	5.830428	121.019000
65.155415	5.838024	121.064000
65.179157	5.844860	121.110000
65.204674	5.851976	121.156000
65.229337	5.861811	121.203000
65.254247	5.871236	121.249000
65.279856	5.881684	121.295000
65.304981	5.889765	121.341000
65.505043	5.900708	121.387000
65.530152	5.990362	121.757000
65.555362	6.002546	121.802000
65.579957	6.014988	121.848000
65.604951	6.026233	121.894000
65.629807	6.037523	121.941000
65.653795	6.047592	121.987000
65.679019	6.057807	122.033000
65.704505	6.069063	122.079000
65.730068	6.080384	122.125000
65.754002	6.090142	122.171000
65.779565	6.099561	122.217000
65.803361	6.108799	122.263000
65.827525	6.117557	122.308000
65.853603	6.124899	122.354000
65.878251	6.132366	122.400000
65.902800	6.139293	122.446000
65.987126	6.146289	122.491000
66.082562	6.185824	122.646000
66.107641	6.189057	122.823000
66.131867	6.191520	122.868000
66.156431	6.196749	122.915000
66.181218	6.202239	122.960000
66.206896	6.207073	123.006000
66.232021	6.211628	123.052000
66.256923	6.215766	123.098000
66.281579	6.219866	123.145000
66.306550	6.223609	123.191000
66.330546	6.229082	123.237000
66.355809	6.233177	123.282000
66.381011	6.237514	123.328000
66.405667	6.241591	123.374000
66.430784	6.249095	123.420000
66.456086	6.255663	123.466000
66.480404	6.261524	123.512000
66.504699	6.267296	123.557000
66.588756	6.272702	123.604000
66.677438	6.309843	123.758000
66.702463	6.315159	123.922000
66.727358	6.319408	123.969000
66.752391	6.324882	124.014000
66.777777	6.330430	124.060000
66.802556	6.336122	124.106000
66.826713	6.341179	124.152000
66.851407	6.346641	124.197000
66.876532	6.354391	124.244000
66.901350	6.359998	124.290000
66.926482	6.364286	124.335000
66.951914	6.369213	124.382000
66.976302	6.374736	124.427000
67.001603	6.378178	124.474000
67.026582	6.382159	124.520000
67.050831	6.385534	124.566000
67.075464	6.389691	124.612000
67.100651	6.394177	124.658000
67.184039	6.397971	124.703000
67.273206	6.422604	124.858000
67.298484	6.425571	125.023000
67.323425	6.429174	125.069000
67.348865	6.431857	125.114000
67.373967	6.433212	125.160000
67.397893	6.435150	125.206000
67.422772	6.438448	125.252000
67.447874	6.443598	125.298000
67.472146	6.446945	125.344000
67.497716	6.449959	125.390000
67.522949	6.452140	125.435000
67.547805	6.453757	125.482000
67.572269	6.453637	125.527000
67.596987	6.455598	125.573000
67.621727	6.456485	125.619000
67.646430	6.459477	125.665000
67.672085	6.460003	125.711000
67.697171	6.463590	125.757000
67.780744	6.468486	125.802000
67.984725	6.508026	125.957000
68.009535	6.509957	126.334000
68.035059	6.514442	126.381000
68.059946	6.517980	126.427000
68.084633	6.521718	126.473000
68.108905	6.527379	126.519000
68.133899	6.532203	126.564000
68.158186	6.541792	126.610000
68.183549	6.549184	126.656000
68.208936	6.556585	126.702000
68.234137	6.561759	126.748000
68.258694	6.567450	126.794000
68.283565	6.572684	126.840000
68.485133	6.578275	126.885000
68.509343	6.632595	127.257000
68.533946	6.638961	127.303000
68.559124	6.645782	127.349000
68.583381	6.652811	127.395000
68.609082	6.659740	127.441000
68.633923	6.667126	127.487000
68.658733	6.674295	127.533000
68.683712	6.682130	127.579000
68.708998	6.692410	127.626000
68.733900	6.701219	127.671000
68.757504	6.709915	127.718000
68.783650	6.718016	127.764000
68.808437	6.725521	127.810000
68.833239	6.732427	127.856000
68.858556	6.739624	127.901000
68.883535	6.746349	127.947000
68.966739	6.752286	127.993000
69.060716	6.790194	128.148000
69.085418	6.795379	128.322000
69.110635	6.801241	128.367000
69.135783	6.805620	128.414000
69.160378	6.812055	128.459000
69.185749	6.818497	128.505000
69.210244	6.825624	128.551000
69.234393	6.830150	128.597000
69.259064	6.836746	128.643000
69.284858	6.841964	128.689000
69.309821	6.847000	128.735000
69.334477	6.851922	128.781000
69.359103	6.857499	128.826000
69.384443	6.864036	128.872000
69.407885	6.868553	128.918000
69.433471	6.873861	128.964000
69.458703	6.877665	129.010000
69.483267	6.882314	129.056000
69.568254	6.888005	129.102000
69.656560	6.915681	129.257000
69.682653	6.920644	129.423000
69.707816	6.926285	129.469000
69.731950	6.929683	129.514000
69.756537	6.935443	129.560000
69.781800	6.941735	129.606000
69.805781	6.946419	129.652000
69.830660	6.951613	129.698000
69.856668	6.956713	129.744000
69.881309	6.961718	129.790000
69.906088	6.966371	129.835000
69.931666	6.971326	129.882000
69.956007	6.977433	129.927000
69.979872	6.985555	129.974000
70.005182	6.993011	130.019000
70.030084	6.999347	130.066000
70.055170	7.006393	130.111000
70.080134	7.012895	130.157000
70.163937	7.021228	130.203000
70.253280	7.067509	130.358000
70.278682	7.077305	130.523000
70.303054	7.087542	130.569000
70.327787	7.096916	130.615000
70.351836	7.105480	130.660000
70.376999	7.114199	130.706000
70.402155	7.122664	130.752000
70.427664	7.131485	130.798000
70.452843	7.137498	130.845000
70.477461	7.143359	130.891000
70.503085	7.150234	130.937000
70.526535	7.157541	130.983000
70.551322	7.165006	131.029000
70.576408	7.169264	131.075000
70.602271	7.173056	131.121000
70.626228	7.174906	131.166000
70.651222	7.176894	131.212000
70.677000	7.180642	131.258000
70.759267	7.184475	131.304000
70.963969	7.230927	131.459000
70.988702	7.237839	131.835000
71.012967	7.243452	131.881000
71.037754	7.252506	131.926000
71.062110	7.260030	131.972000
71.087581	7.268946	132.018000
71.112775	7.277715	132.064000
71.137854	7.286869	132.110000
71.162033	7.295826	132.156000
71.187504	7.305818	132.202000
71.212375	7.313239	132.248000
71.235848	7.319682	132.294000
71.261127	7.326688	132.339000
71.463064	7.334711	132.385000
71.487128	7.409429	132.757000
71.512330	7.418338	132.803000
71.537924	7.426790	132.849000
71.562964	7.434116	132.895000
71.587228	7.443335	132.941000
71.612960	7.452824	132.986000
71.637601	7.462374	133.033000
71.661320	7.472407	133.078000
71.686883	7.482295	133.124000
71.711908	7.490854	133.170000
71.736172	7.500338	133.216000
71.761696	7.511141	133.262000
71.787021	7.520797	133.308000
71.811401	7.530884	133.354000
71.835442	7.540513	133.400000
71.860175	7.552407	133.445000
71.944424	7.564200	133.491000
72.039968	7.656244	133.646000
72.065416	7.671549	133.823000
72.090203	7.687790	133.868000
72.115328	7.703816	133.915000
72.140860	7.720165	133.961000
72.164525	7.734218	134.007000
72.189903	7.750683	134.053000
72.214483	7.765482	134.099000
72.239438	7.781081	134.145000
72.264448	7.796771	134.192000
72.290157	7.811620	134.238000
72.315289	7.827540	134.284000
72.339992	7.844175	134.331000
72.365539	7.861119	134.376000
72.390050	7.877784	134.422000
72.414291	7.892058	134.468000
72.439631	7.908748	134.514000
72.464179	7.923692	134.560000
72.548590	7.939902	134.606000
72.636266	8.030416	134.761000
72.661337	8.046720	134.923000
72.685809	8.066161	134.969000
72.710404	8.084600	135.014000
72.734253	8.099416	135.061000
72.759977	8.116366	135.106000
72.785110	8.131042	135.152000
72.809874	8.145785	135.198000
72.834806	8.160184	135.244000
72.859993	8.175848	135.290000
72.884503	8.192693	135.336000
72.908621	8.210436	135.382000
72.934192	8.225965	135.429000
72.959309	8.242690	135.474000
72.983965	8.261572	135.520000
73.010097	8.280170	135.566000
73.034822	8.300493	135.612000
73.059271	8.321282	135.658000
73.142037	8.343207	135.704000
73.231265	8.464370	135.858000
73.256674	8.486346	136.023000
73.280716	8.506955	136.069000
73.306179	8.529528	136.115000
73.331503	8.552815	136.161000
73.357381	8.578724	136.207000
73.381315	8.600860	136.253000
73.405948	8.622189	136.299000
73.431504	8.645385	136.345000
73.455530	8.668547	136.391000
73.479917	8.693169	136.437000
73.505580	8.717101	136.483000
73.530889	8.741778	136.529000
73.555169	8.767163	136.575000
73.580670	8.792569	136.620000
73.605434	8.816989	136.666000
73.629422	8.839837	136.712000
73.654816	8.863994	136.758000
73.738511	8.887501	136.804000
73.942261	9.159594	136.959000
73.967586	9.188715	137.335000
73.991689	9.218525	137.381000
74.016845	9.244593	137.427000
74.041777	9.274126	137.473000
74.066910	9.304363	137.519000
74.091697	9.336479	137.565000
74.116975	9.365084	137.611000
74.141163	9.394891	137.657000
74.165566	9.423892	137.702000
74.190975	9.452677	137.748000
74.215969	9.481900	137.794000
74.240510	9.511562	137.840000
74.441502	9.540440	137.885000
74.466657	9.777510	138.257000
74.491137	9.811655	138.303000
74.516415	9.842673	138.349000
74.542270	9.873060	138.395000
74.566849	9.904419	138.441000
74.591183	9.936273	138.488000
74.615532	9.969804	138.534000
74.641287	10.002634	138.579000
74.665881	10.036800	138.625000
74.690968	10.074822	138.671000
74.716777	10.111147	138.717000
74.740672	10.150421	138.763000
74.766250	10.188111	138.810000
74.790884	10.227761	138.856000
74.815563	10.267357	138.902000
74.840342	10.308240	138.948000
74.924399	10.347386	138.994000
75.018237	10.604048	139.148000
75.044376	10.648278	139.323000
75.069616	10.692081	139.369000
75.093727	10.736439	139.415000
75.118860	10.780034	139.461000
75.143854	10.825455	139.506000
75.168771	10.872698	139.552000
75.193589	10.923165	139.598000
75.219113	10.972838	139.644000
75.243954	11.024854	139.691000
75.268979	11.076654	139.737000
75.293328	11.127704	139.783000
75.317692	11.180207	139.829000
75.343217	11.231845	139.874000
75.368042	11.286067	139.920000
75.393589	11.346420	139.966000
75.418292	11.405398	140.013000
75.443209	11.463299	140.058000
75.526190	11.523069	140.104000
75.615334	11.871184	140.259000
75.639752	11.932112	140.422000
75.664277	11.989995	140.468000
75.689833	12.044766	140.514000
75.715134	12.095647	140.560000
75.739376	12.146776	140.606000
75.765130	12.196245	140.652000
75.789518	12.246318	140.698000
75.812753	12.296396	140.744000
75.838546	12.344655	140.789000
75.863625	12.394086	140.836000
75.888258	12.444143	140.882000
75.913729	12.491577	140.928000
75.939130	12.537050	140.973000
75.963894	12.580944	141.019000
75.987620	12.625265	141.065000
76.012699	12.668751	141.111000
76.037294	12.714241	141.156000
76.121812	12.760974	141.202000
76.246706	12.853793	141.357000
76.270863	13.022142	141.590000
76.296849	13.148521	141.635000
76.321589	13.252287	141.681000
76.347014	13.336457	141.727000
76.372707	13.412997	141.774000
76.398009	13.486072	141.820000
76.421928	13.555009	141.866000
76.446645	13.621475	141.912000
76.471601	13.687652	141.958000
76.495973	13.753026	142.004000
76.520622	13.819846	142.050000
76.546315	13.885607	142.096000
76.571955	13.952802	142.141000
76.596235	14.016381	142.187000
76.621682	14.079238	142.233000
76.710418	14.141903	142.280000
76.920861	14.880638	142.445000
76.946270	14.950998	142.835000
76.971341	15.024952	142.881000
76.996381	15.100944	142.926000
77.020792	15.180551	142.972000
77.046677	15.259629	143.018000
77.070550	15.341896	143.064000
77.095037	15.424131	143.110000
77.120753	15.504877	143.156000
77.145440	15.586415	143.202000
77.170419	15.669381	143.248000
77.195452	15.756605	143.294000
77.220754	15.845999	143.340000
77.420923	15.936997	143.386000
77.446486	16.721036	143.757000
77.471603	16.821151	143.803000
77.495476	16.924662	143.849000
77.520408	17.030925	143.895000
77.545625	17.141568	143.941000
77.569851	17.265842	143.986000
77.594792	17.391086	144.032000
77.620570	17.510891	144.079000
77.645856	17.624809	144.125000
77.670082	17.737236	144.171000
77.695384	17.848483	144.216000
77.719033	17.953668	144.263000
77.743866	18.061408	144.308000
77.769445	18.171051	144.354000
77.794493	18.284127	144.400000
77.819218	18.398642	144.446000
77.903183	18.511859	144.492000
77.997797	19.206782	144.647000
78.022514	19.317897	144.823000
78.047824	19.424954	144.869000
78.072472	19.534183	144.915000
78.097413	19.644507	144.960000
78.123360	19.755695	145.007000
78.148362	19.875014	145.052000
78.172588	19.993717	145.098000
78.197536	20.110131	145.144000
78.222884	20.230725	145.191000
78.247202	20.353853	145.237000
78.272803	20.480693	145.284000
78.298112	20.610899	145.330000
78.322454	20.739984	145.375000
78.347625	20.868258	145.422000
78.372765	20.990741	145.467000
78.397567	21.111174	145.513000
78.421317	21.230094	145.559000
78.505773	21.343709	145.605000
78.593649	21.989711	145.761000
78.619027	22.105473	145.922000
78.643491	22.218865	145.968000
78.668762	22.333636	146.015000
78.694594	22.439730	146.061000
78.719027	22.536770	146.107000
78.742593	22.628504	146.153000
78.768048	22.718490	146.199000
78.793396	22.819819	146.245000
78.818083	22.933225	146.291000
78.843353	23.057691	146.337000
78.868624	23.183825	146.382000
78.893419	23.311690	146.428000
78.918106	23.437540	146.474000
78.943031	23.557095	146.520000
78.966688	23.673116	146.566000
78.991813	23.792238	146.612000
79.017084	23.915501	146.658000
79.100918	24.037261	146.704000
79.189785	24.785671	146.858000
79.214326	24.937183	147.022000
79.239343	25.084382	147.069000
79.264530	25.215913	147.115000
79.288679	25.341315	147.161000
79.312644	25.459251	147.207000
79.338714	25.573093	147.252000
79.363831	25.688631	147.298000
79.388572	25.800184	147.344000
79.413950	25.907666	147.390000
79.439006	26.002377	147.436000
79.463232	26.095205	147.482000
79.487527	26.188004	147.528000
79.512828	26.282367	147.574000
79.537200	26.385317	147.620000
79.562448	26.500100	147.666000
79.588119	26.625268	147.711000
79.612990	26.751478	147.757000
79.696186	26.872703	147.803000
79.900436	27.853523	147.958000
79.925361	27.973877	148.335000
79.950532	28.103171	148.381000
79.975180	28.238040	148.427000
79.998991	28.377333	148.472000
80.023747	28.512586	148.518000
80.049157	28.643536	148.564000
80.073690	28.777930	148.610000
80.098769	28.914335	148.656000
80.124493	29.057209	148.702000
80.148826	29.203907	148.747000
80.173275	29.354342	148.793000
80.198177	29.500834	148.839000
