Sample	2mm tape 
date	08/01/2025
	
Temperature (K)	77.00
Angle (deg.)	0.000000
field / T	0.150000
	
		
Approx. trace time (s)	120.0	
		
Current / A	V1  -sample/ uV	time/s
-0.016006	2.482391	0.000000
-0.016055	2.483069	0.046000
-0.016000	2.484103	0.092000
-0.015945	2.485259	0.138000
-0.015981	2.484174	0.183000
-0.015829	2.485461	0.229000
-0.016000	2.487913	0.276000
-0.016025	2.487581	0.323000
-0.015933	2.483932	0.368000
-0.015841	2.482452	0.414000
-0.015921	2.480485	0.461000
-0.015963	2.480019	0.508000
-0.015969	2.480363	0.553000
-0.006624	2.483527	0.600000
-0.017755	2.484804	0.646000
-0.017154	2.511933	1.025000
-0.018050	2.510716	1.072000
-0.017761	2.507158	1.118000
0.002176	2.502247	1.164000
0.028327	2.500244	1.210000
0.052715	2.495692	1.257000
0.077771	2.493158	1.303000
0.101245	2.493319	1.349000
0.127306	2.490978	1.395000
0.151701	2.489508	1.440000
0.177426	2.486939	1.487000
0.202562	2.484547	1.534000
0.227860	2.484385	1.579000
0.253745	2.488125	1.627000
0.278583	2.490725	1.673000
0.304050	2.491362	1.718000
0.386516	2.492285	1.765000
0.411560	2.486082	1.920000
0.611490	2.485036	1.965000
0.637098	2.488837	2.336000
0.662313	2.487530	2.382000
0.687320	2.484517	2.429000
0.712652	2.483759	2.475000
0.737711	2.484814	2.520000
0.762564	2.482205	2.567000
0.786611	2.479126	2.613000
0.811692	2.477758	2.660000
0.836675	2.475285	2.705000
0.862574	2.474382	2.752000
0.887562	2.473256	2.798000
0.978951	2.472544	2.845000
1.003436	2.466413	3.013000
1.093252	2.458458	3.059000
1.118312	2.458281	3.224000
1.142270	2.455233	3.270000
1.167571	2.452169	3.316000
1.192333	2.448742	3.362000
1.217605	2.446058	3.408000
1.242559	2.444305	3.453000
1.267701	2.444235	3.500000
1.293010	2.446078	3.546000
1.318362	2.447965	3.593000
1.343153	2.447435	3.638000
1.367803	2.445491	3.686000
1.392417	2.442317	3.732000
1.417614	2.436871	3.778000
1.442651	2.433212	3.824000
1.467492	2.431056	3.870000
1.492888	2.430758	3.916000
1.576243	2.430778	3.962000
1.601312	2.430667	4.116000
1.688567	2.416294	4.162000
1.713132	2.410805	4.323000
1.738467	2.406364	4.370000
1.763714	2.402972	4.416000
1.788506	2.400045	4.462000
1.814080	2.396421	4.509000
1.838914	2.393580	4.554000
1.864170	2.389233	4.601000
1.888326	2.385780	4.646000
1.913050	2.381065	4.692000
1.937729	2.376353	4.739000
1.963584	2.374908	4.785000
1.988867	2.374736	4.831000
2.013846	2.373093	4.879000
2.039694	2.368716	4.925000
2.064888	2.363287	4.971000
2.089405	2.362043	5.017000
2.172091	2.358238	5.063000
2.197178	2.346920	5.217000
2.284266	2.326908	5.263000
2.309380	2.321555	5.424000
2.335024	2.317182	5.470000
2.359842	2.312765	5.516000
2.385434	2.312724	5.563000
2.410864	2.309595	5.610000
2.435428	2.306705	5.656000
2.459866	2.301932	5.701000
2.484241	2.299663	5.748000
2.509692	2.295427	5.794000
2.534644	2.289366	5.840000
2.560346	2.285934	5.887000
2.586009	2.281001	5.934000
2.611226	2.279884	5.980000
2.636027	2.280343	6.026000
2.661366	2.283437	6.073000
2.686116	2.289144	6.119000
2.884164	2.290615	6.165000
2.909305	2.260918	6.532000
2.934250	2.259437	6.578000
2.959398	2.259447	6.624000
2.984487	2.258503	6.670000
3.009538	2.259876	6.716000
3.034878	2.261611	6.762000
3.059946	2.261034	6.808000
3.084385	2.264067	6.854000
3.109428	2.262677	6.901000
3.133887	2.260943	6.947000
3.159157	2.256404	6.993000
3.184023	2.257172	7.040000
3.209967	2.256313	7.086000
3.234913	2.257132	7.132000
3.259656	2.253988	7.178000
3.284850	2.250708	7.224000
3.367861	2.248251	7.270000
3.392751	2.249560	7.425000
3.592058	2.247689	7.471000
3.617653	2.246830	7.839000
3.643197	2.249337	7.885000
3.667958	2.248190	7.932000
3.693332	2.247679	7.979000
3.718719	2.248200	8.025000
3.743395	2.251314	8.071000
3.767923	2.254746	8.118000
3.792951	2.258557	8.163000
3.818326	2.257339	8.211000
3.843730	2.258441	8.257000
3.868632	2.255742	8.303000
3.956677	2.253659	8.349000
3.982069	2.253022	8.512000
4.070932	2.270037	8.558000
4.095948	2.273135	8.723000
4.121375	2.277539	8.769000
4.146646	2.283214	8.816000
4.172079	2.242938	8.863000
4.196907	2.297307	8.909000
4.222285	2.306815	8.955000
4.247004	2.309802	9.001000
4.271742	2.312350	9.047000
4.296813	2.314306	9.093000
4.321433	2.316824	9.140000
4.346594	2.323404	9.187000
4.372067	2.329517	9.233000
4.397019	2.334258	9.279000
4.422036	2.340076	9.325000
4.447796	2.344291	9.371000
4.472757	2.345994	9.418000
4.555769	2.346909	9.463000
4.580573	2.348451	9.619000
4.666786	2.351954	9.664000
4.692204	2.354583	9.824000
4.717197	2.358525	9.869000
4.742543	2.356746	9.915000
4.767526	2.354168	9.962000
4.792689	2.348087	10.009000
4.816714	2.342097	10.054000
4.841887	2.336340	10.101000
4.866707	2.333525	10.146000
4.891990	2.332236	10.193000
4.917318	2.330734	10.239000
4.942509	2.329456	10.286000
4.967712	2.329688	10.331000
4.992638	2.332594	10.378000
5.017652	2.336472	10.425000
5.042610	2.340197	10.471000
5.066656	2.342562	10.517000
5.151079	2.344074	10.562000
5.175825	2.339681	10.717000
5.263249	2.346307	10.763000
5.288485	2.350240	10.924000
5.313905	2.351681	10.970000
5.338814	2.351741	11.016000
5.362990	2.354512	11.062000
5.387758	2.359172	11.109000
5.412433	2.366694	11.155000
5.438350	2.370717	11.202000
5.463382	2.377925	11.247000
5.488548	2.383314	11.293000
5.513167	2.385785	11.339000
5.538384	2.383031	11.385000
5.563068	2.383182	11.431000
5.587498	2.386382	11.478000
5.612670	2.390441	11.523000
5.637561	2.397345	11.570000
5.662770	2.406711	11.616000
5.862169	2.417761	11.661000
5.886945	2.489548	12.029000
5.912333	2.498094	12.076000
5.937323	2.504439	12.122000
5.962826	2.511044	12.169000
5.986828	2.517278	12.214000
6.011533	2.519317	12.261000
6.036699	2.522205	12.307000
6.061942	2.528629	12.352000
6.087409	2.533813	12.400000
6.112534	2.541152	12.446000
6.137838	2.547733	12.492000
6.162612	2.552360	12.538000
6.187402	2.556903	12.584000
6.211803	2.561174	12.630000
6.236932	2.563536	12.677000
6.262237	2.563829	12.723000
6.346269	2.567165	12.769000
6.371736	2.576391	12.923000
6.570701	2.595712	12.970000
6.596316	2.597811	13.339000
6.621267	2.602677	13.385000
6.645628	2.605009	13.430000
6.669937	2.611252	13.477000
6.695218	2.617793	13.523000
6.720806	2.622780	13.569000
6.745885	2.628424	13.616000
6.770343	2.632685	13.661000
6.795651	2.632200	13.707000
6.819972	2.635470	13.752000
6.844202	2.634404	13.798000
6.936271	2.634495	13.843000
6.961557	2.623222	14.012000
7.049840	2.634909	14.059000
7.075018	2.635030	14.224000
7.100156	2.634969	14.269000
7.125637	2.634636	14.316000
7.150870	2.637284	14.362000
7.175467	2.637785	14.408000
7.200489	2.634454	14.455000
7.225587	2.628798	14.502000
7.250429	2.624971	14.548000
7.275419	2.623132	14.593000
7.300421	2.622496	14.641000
7.325962	2.625538	14.686000
7.350652	2.629692	14.732000
7.376354	2.631557	14.779000
7.401293	2.632361	14.825000
7.426129	2.632219	14.872000
7.451496	2.627680	14.918000
7.535842	2.620326	14.965000
7.560697	2.611791	15.120000
7.646610	2.617102	15.165000
7.671673	2.617742	15.324000
7.696821	2.616657	15.369000
7.721972	2.617112	15.416000
7.745760	2.617153	15.462000
7.770498	2.618827	15.508000
7.796218	2.619343	15.554000
7.821439	2.618319	15.601000
7.846394	2.615218	15.647000
7.871676	2.613724	15.693000
7.896653	2.614781	15.739000
7.921991	2.611212	15.785000
7.946453	2.610899	15.831000
7.971414	2.613775	15.878000
7.995735	2.617621	15.924000
8.021722	2.622108	15.970000
8.046319	2.625967	16.017000
8.130886	2.631346	16.063000
8.155882	2.642436	16.218000
8.242649	2.649765	16.264000
8.267190	2.654992	16.424000
8.292180	2.658606	16.470000
8.317524	2.659632	16.517000
8.342119	2.660465	16.563000
8.367914	2.663014	16.609000
8.393027	2.663377	16.656000
8.417875	2.668129	16.702000
8.443174	2.671804	16.748000
8.468439	2.678597	16.795000
8.492966	2.681701	16.841000
8.518089	2.685674	16.887000
8.543007	2.687388	16.934000
8.567840	2.689480	16.980000
8.593087	2.693084	17.026000
8.618464	2.691947	17.073000
8.643435	2.691916	17.119000
8.842389	2.688070	17.165000
8.867815	2.676913	17.532000
8.893387	2.680669	17.579000
8.917661	2.683055	17.625000
8.941818	2.690081	17.670000
8.966273	2.697113	17.716000
8.991504	2.702010	17.762000
9.017166	2.703158	17.809000
9.042172	2.706822	17.855000
9.067930	2.709198	17.901000
9.092674	2.708000	17.947000
9.118322	2.712833	17.994000
9.142875	2.718690	18.041000
9.167109	2.722446	18.087000
9.191951	2.726627	18.133000
9.217002	2.731763	18.179000
9.242575	2.732774	18.225000
9.326880	2.732613	18.271000
9.352263	2.743333	18.427000
9.551744	2.721481	18.473000
9.576560	2.719540	18.841000
9.601469	2.719035	18.887000
9.626416	2.721117	18.934000
9.651135	2.724080	18.980000
9.676296	2.727259	19.026000
9.701455	2.729655	19.073000
9.727002	2.730302	19.119000
9.752233	2.728932	19.164000
9.777325	2.724312	19.211000
9.802210	2.720415	19.258000
9.827201	2.715633	19.304000
9.915499	2.713560	19.351000
9.940175	2.702091	19.513000
10.029297	2.700914	19.559000
10.054794	2.700393	19.724000
10.079990	2.701960	19.770000
10.104477	2.700914	19.816000
10.129517	2.699124	19.862000
10.154652	2.697876	19.910000
10.179569	2.695632	19.956000
10.205192	2.693539	20.002000
10.230187	2.689793	20.048000
10.255956	2.690941	20.095000
10.280895	2.692892	20.142000
10.305920	2.696920	20.188000
10.330860	2.700646	20.234000
10.355528	2.702384	20.280000
10.380327	2.699705	20.327000
10.404594	2.696162	20.373000
10.430486	2.689844	20.419000
10.514909	2.684026	20.464000
10.540425	2.678840	20.620000
10.625635	2.667664	20.666000
10.650283	2.663276	20.824000
10.674333	2.658242	20.870000
10.699328	2.651499	20.916000
10.724609	2.644841	20.962000
10.749709	2.638119	21.008000
10.775450	2.636648	21.054000
10.800351	2.635359	21.101000
10.825879	2.635754	21.147000
10.850932	2.633852	21.194000
10.875344	2.634444	21.240000
10.899930	2.631204	21.286000
10.924963	2.628373	21.332000
10.949908	2.623754	21.378000
10.974971	2.619604	21.424000
11.000523	2.617438	21.470000
11.025490	2.612186	21.516000
11.108534	2.604144	21.562000
11.133934	2.598532	21.718000
11.220428	2.592354	21.763000
11.245502	2.588816	21.923000
11.270285	2.585267	21.970000
11.295695	2.582956	22.015000
11.320328	2.579725	22.062000
11.345620	2.575001	22.108000
11.370516	2.569838	22.154000
11.394830	2.568390	22.200000
11.419697	2.567336	22.245000
11.444717	2.570935	22.292000
11.470347	2.571403	22.339000
11.495640	2.571311	22.384000
11.520400	2.572943	22.431000
11.545750	2.572351	22.477000
11.570775	2.573346	22.523000
11.596025	2.572791	22.569000
11.620186	2.573987	22.616000
11.818539	2.572821	22.662000
11.843773	2.576057	23.029000
11.868977	2.579807	23.075000
11.894051	2.583960	23.121000
11.919724	2.587460	23.167000
11.944947	2.590421	23.213000
11.969518	2.594566	23.259000
11.994790	2.596706	23.305000
12.019092	2.597397	23.352000
12.043815	2.597730	23.398000
12.068951	2.597821	23.445000
12.093957	2.595014	23.490000
12.119349	2.592505	23.537000
12.144797	2.592174	23.583000
12.169445	2.594536	23.629000
12.194863	2.601561	23.676000
12.219159	2.604005	23.721000
12.302432	2.607879	23.766000
12.327953	2.613453	23.922000
12.526747	2.609297	23.969000
12.552449	2.609631	24.337000
12.577481	2.615632	24.383000
12.602996	2.623283	24.429000
12.627812	2.630516	24.475000
12.652746	2.635358	24.522000
12.677263	2.639529	24.568000
12.702099	2.643203	24.613000
12.727314	2.645862	24.660000
12.752290	2.650098	24.706000
12.777787	2.652483	24.752000
12.802817	2.655122	24.799000
12.893753	2.656922	24.845000
12.918348	2.651968	25.013000
13.008544	2.653813	25.059000
13.032951	2.659469	25.223000
13.057342	2.665833	25.269000
13.082061	2.670160	25.315000
13.107435	2.672677	25.361000
13.132827	2.676079	25.408000
13.157356	2.678698	25.453000
13.183446	2.677681	25.500000
13.208316	2.678576	25.546000
13.233128	2.678587	25.593000
13.257753	2.677540	25.639000
13.282576	2.677722	25.686000
13.307487	2.677904	25.732000
13.332862	2.680300	25.778000
13.358225	2.684131	25.824000
13.383591	2.689509	25.869000
13.408487	2.691279	25.916000
13.491692	2.694964	25.963000
13.516584	2.700751	26.117000
13.603403	2.698320	26.163000
13.628316	2.694180	26.324000
13.654083	2.692871	26.371000
13.678839	2.692361	26.417000
13.704278	2.690889	26.462000
13.729145	2.691001	26.509000
13.754327	2.690636	26.555000
13.779271	2.691906	26.601000
13.803293	2.690151	26.647000
13.828653	2.686870	26.694000
13.853312	2.681806	26.740000
13.878854	2.677307	26.786000
13.903969	2.674371	26.831000
13.929247	2.674270	26.877000
13.953748	2.675366	26.924000
13.977987	2.673612	26.969000
14.002299	2.671116	27.014000
14.086596	2.668098	27.060000
14.111442	2.663063	27.216000
14.199202	2.657144	27.262000
14.224585	2.655905	27.424000
14.249646	2.653328	27.470000
14.275037	2.648258	27.516000
14.299805	2.645347	27.563000
14.324995	2.641308	27.608000
14.349743	2.645579	27.655000
14.374499	2.650452	27.702000
14.399669	2.654819	27.748000
14.424811	2.658595	27.794000
14.449832	2.658322	27.839000
14.474939	2.659216	27.886000
14.500188	2.656088	27.932000
14.525650	2.654981	27.979000
14.549843	2.654314	28.025000
14.574252	2.652210	28.071000
14.599143	2.647955	28.117000
14.798056	2.645569	28.163000
14.823446	2.636485	28.529000
14.848666	2.635090	28.576000
14.874003	2.630950	28.623000
14.898916	2.626684	28.668000
14.924388	2.621522	28.715000
14.949176	2.618896	28.762000
14.973480	2.621592	28.809000
14.999442	2.621178	28.854000
15.024396	2.623884	28.901000
15.049519	2.624667	28.946000
15.074598	2.624176	28.993000
15.099663	2.624157	29.039000
15.125680	2.622425	29.085000
15.150635	2.623570	29.131000
15.175332	2.621985	29.177000
15.199442	2.622394	29.224000
15.283183	2.621673	29.270000
15.308416	2.621694	29.424000
15.507672	2.650462	29.471000
15.533056	2.655875	29.838000
15.558084	2.658504	29.885000
15.583397	2.662037	29.931000
15.607471	2.665611	29.977000
15.632551	2.667501	30.023000
15.657685	2.670666	30.069000
15.682334	2.672678	30.115000
15.708274	2.673774	30.162000
15.733343	2.677915	30.207000
15.758301	2.683783	30.253000
15.783173	2.688605	30.300000
15.873217	2.693397	30.346000
15.898212	2.711786	30.513000
15.986416	2.726607	30.560000
16.011839	2.729644	30.724000
16.036832	2.730974	30.769000
16.062347	2.733547	30.815000
16.087305	2.736847	30.862000
16.112738	2.740002	30.907000
16.136808	2.738960	30.954000
16.161956	2.742185	31.000000
16.186618	2.741335	31.046000
16.211827	2.741790	31.093000
16.237426	2.742837	31.139000
16.262077	2.743009	31.185000
16.287765	2.742837	31.231000
16.312989	2.744035	31.278000
16.338241	2.744177	31.324000
16.362847	2.743661	31.370000
16.387338	2.745182	31.417000
16.471311	2.747427	31.463000
16.496048	2.758169	31.618000
16.582990	2.760281	31.664000
16.608215	2.757426	31.823000
16.633441	2.755434	31.870000
16.658779	2.750187	31.916000
16.683324	2.746098	31.962000
16.707581	2.741417	32.008000
16.732617	2.740603	32.055000
16.757885	2.741913	32.101000
16.782959	2.742554	32.147000
16.808044	2.743681	32.193000
16.833300	2.743363	32.238000
16.858271	2.745517	32.285000
16.883747	2.747144	32.331000
16.908336	2.748115	32.378000
16.933048	2.746876	32.424000
16.957871	2.746866	32.470000
16.982566	2.748205	32.516000
17.066604	2.749049	32.562000
17.092345	2.749934	32.717000
17.179276	2.778150	32.762000
17.204051	2.785059	32.923000
17.228942	2.790544	32.970000
17.253533	2.795846	33.016000
17.278368	2.797277	33.062000
17.303567	2.801620	33.108000
17.328894	2.804525	33.155000
17.341627	2.811855	33.201000
17.379017	2.811288	33.247000
17.404501	2.811142	33.293000
17.429244	2.812588	33.338000
17.454242	2.818334	33.386000
17.478251	2.826038	33.432000
17.503426	2.831745	33.478000
17.528562	2.837140	33.524000
17.553704	2.839280	33.570000
17.579050	2.842697	33.615000
17.777583	2.845687	33.662000
17.802898	2.860732	34.029000
17.827988	2.862038	34.075000
17.852810	2.861979	34.122000
17.877500	2.861291	34.168000
17.902172	2.860297	34.214000
17.927871	2.870069	34.261000
17.953188	2.875419	34.307000
17.978417	2.881460	34.353000
18.003582	2.885600	34.400000
18.028402	2.887780	34.445000
18.053292	2.889360	34.492000
18.078331	2.888693	34.538000
18.103500	2.888194	34.585000
18.128415	2.885992	34.631000
18.153419	2.885317	34.677000
18.178531	2.880886	34.723000
18.262628	2.874763	34.769000
18.287501	2.878876	34.924000
18.486804	2.871416	34.970000
18.511923	2.868099	35.338000
18.536411	2.862952	35.385000
18.561051	2.858451	35.430000
18.586739	2.850788	35.477000
18.611267	2.844853	35.523000
18.636976	2.839178	35.570000
18.662385	2.834859	35.617000
18.687412	2.836216	35.662000
18.712807	2.839158	35.709000
18.737110	2.840961	35.755000
18.761836	2.841287	35.801000
18.852105	2.842469	35.847000
18.877495	2.837714	36.013000
18.965943	2.822090	36.059000
18.991642	2.820291	36.224000
19.016289	2.819093	36.269000
19.041500	2.816676	36.316000
19.065924	2.813264	36.362000
19.090632	2.810080	36.409000
19.115503	2.809791	36.455000
19.140559	2.810970	36.501000
19.165937	2.814412	36.547000
19.190705	2.816080	36.591000
19.215932	2.817803	36.639000
19.241644	2.817469	36.685000
19.266295	2.819052	36.731000
19.290882	2.822211	36.777000
19.315534	2.820220	36.824000
19.340636	2.820543	36.870000
19.365943	2.818405	36.916000
19.450630	2.818036	36.962000
19.475734	2.820442	37.117000
19.562008	2.824991	37.163000
19.587029	2.826639	37.324000
19.611268	2.827377	37.370000
19.636240	2.828070	37.416000
19.660882	2.826230	37.462000
19.686309	2.826523	37.508000
19.711390	2.824658	37.554000
19.736580	2.824698	37.600000
19.761607	2.824137	37.646000
19.786593	2.825032	37.692000
19.811845	2.825254	37.739000
19.835844	2.823956	37.785000
19.860937	2.822039	37.830000
19.885693	2.819653	37.877000
19.911144	2.820321	37.923000
19.936396	2.818911	37.969000
19.961390	2.819093	38.015000
20.045559	2.820432	38.061000
20.070292	2.828080	38.217000
20.157451	2.836665	38.262000
20.181771	2.840067	38.423000
20.206907	2.846183	38.470000
20.232334	2.849266	38.516000
20.257311	2.855644	38.562000
20.282497	2.858449	38.608000
20.308089	2.863105	38.655000
20.333765	2.866077	38.702000
20.358214	2.866380	38.748000
20.382887	2.864592	38.794000
20.407672	2.864301	38.840000
20.432396	2.868438	38.886000
20.458275	2.878997	38.932000
20.482830	2.890757	38.979000
20.508402	2.896576	39.024000
20.533316	2.903935	39.071000
20.558823	2.906778	39.118000
20.757565	2.909805	39.164000
20.782423	2.929151	39.531000
20.806832	2.934361	39.577000
20.831484	2.936945	39.623000
20.856764	2.939553	39.669000
20.881624	2.938862	39.715000
20.907137	2.938610	39.761000
20.932571	2.937348	39.807000
20.957669	2.935213	39.853000
20.983019	2.935436	39.900000
21.007272	2.937626	39.946000
21.032009	2.943510	39.993000
21.056563	2.952521	40.038000
21.081824	2.959869	40.085000
21.107274	2.965133	40.130000
21.132268	2.966955	40.177000
21.157695	2.969126	40.223000
21.240670	2.968060	40.269000
21.265056	2.959909	40.424000
21.464737	2.960743	40.471000
21.490367	2.959496	40.839000
21.514970	2.958341	40.884000
21.540375	2.955594	40.930000
21.565646	2.955392	40.977000
21.590803	2.955301	41.023000
21.615638	2.956892	41.070000
21.641076	2.954074	41.116000
21.665216	2.955351	41.162000
21.690375	2.955164	41.208000
21.715465	2.953565	41.255000
21.740640	2.950167	41.301000
21.830729	2.948750	41.347000
21.855341	2.942901	41.513000
21.945178	2.944459	41.560000
21.970387	2.942769	41.723000
21.994379	2.941381	41.770000
22.019398	2.943000	41.816000
22.044657	2.940619	41.862000
22.069748	2.938549	41.909000
22.094882	2.933790	41.954000
22.120078	2.931665	42.001000
22.144773	2.926839	42.047000
22.169915	2.926961	42.093000
22.193920	2.928086	42.138000
22.218400	2.926961	42.184000
22.243327	2.925507	42.230000
22.268582	2.925532	42.276000
22.293984	2.925255	42.321000
22.318824	2.925094	42.368000
22.344080	2.924740	42.414000
22.427342	2.920807	42.460000
22.452418	2.912808	42.615000
22.540534	2.891297	42.661000
22.565751	2.891550	42.824000
22.590283	2.891821	42.870000
22.615700	2.895190	42.916000
22.641059	2.895809	42.962000
22.666149	2.896021	43.009000
22.691616	2.899190	43.054000
22.716376	2.897087	43.101000
22.741387	2.895779	43.147000
22.765690	2.891753	43.194000
22.790775	2.887668	43.240000
22.815610	2.880683	43.286000
22.840721	2.876670	43.332000
22.866359	2.874161	43.378000
22.891196	2.868741	43.424000
22.916889	2.866974	43.471000
22.941793	2.860651	43.517000
23.024717	2.859847	43.563000
23.049840	2.862169	43.718000
23.136177	2.880501	43.764000
23.161736	2.878835	43.924000
23.187049	2.879831	43.970000
23.212422	2.878139	44.017000
23.237374	2.877801	44.063000
23.262871	2.880011	44.109000
23.287301	2.884262	44.155000
23.312199	2.889980	44.202000
23.337186	2.894634	44.248000
23.362230	2.900046	44.294000
23.387311	2.903260	44.340000
23.412213	2.906575	44.387000
23.438050	2.906707	44.433000
23.463077	2.907625	44.479000
23.487491	2.908978	44.525000
23.513217	2.907852	44.572000
23.537219	2.909130	44.618000
23.736072	2.910275	44.664000
23.760815	2.952958	45.031000
23.786159	2.953755	45.078000
23.811685	2.959787	45.124000
23.836378	2.965274	45.170000
23.861841	2.969644	45.216000
23.886712	2.971407	45.262000
23.911783	2.976151	45.308000
23.936549	2.979649	45.354000
23.961244	2.980744	45.401000
23.985898	2.985681	45.447000
24.011401	2.989510	45.493000
24.036872	2.994042	45.539000
24.061526	2.995007	45.586000
24.086755	2.999802	45.631000
24.111866	3.001300	45.678000
24.136307	3.004213	45.724000
24.219517	3.004960	45.770000
24.245009	3.017815	45.924000
24.444062	3.041346	45.971000
24.469583	3.039513	46.339000
24.495106	3.041285	46.385000
24.520563	3.043152	46.432000
24.545688	3.044854	46.478000
24.570455	3.047266	46.524000
24.594789	3.050985	46.571000
24.619631	3.053489	46.616000
24.644662	3.052272	46.662000
24.669722	3.052712	46.708000
24.694491	3.049941	46.754000
24.719313	3.048805	46.800000
24.809148	3.046150	46.846000
24.834699	3.059193	47.013000
24.923543	3.074484	47.060000
24.948070	3.078098	47.224000
24.973698	3.080160	47.269000
24.998698	3.083072	47.315000
25.024163	3.084503	47.362000
25.049584	3.084260	47.409000
25.074119	3.081004	47.455000
25.099138	3.080130	47.500000
25.123981	3.082193	47.547000
25.148487	3.082820	47.593000
25.173132	3.083724	47.639000
25.198551	3.084351	47.685000
25.223595	3.089795	47.731000
25.248572	3.094587	47.777000
25.273972	3.095916	47.823000
25.298599	3.097407	47.869000
25.322848	3.097104	47.915000
25.406469	3.094597	47.961000
25.431281	3.073680	48.115000
25.519512	3.058799	48.161000
25.544312	3.058137	48.324000
25.569729	3.059724	48.370000
25.594952	3.057955	48.417000
25.620455	3.056079	48.462000
25.644864	3.053398	48.509000
25.669795	3.048871	48.555000
25.694385	3.046443	48.601000
25.719362	3.044652	48.647000
25.744512	3.038772	48.693000
25.769946	3.028259	48.740000
25.794812	3.020587	48.786000
25.820204	3.014097	48.832000
25.845358	3.009785	48.878000
25.870225	3.004042	48.925000
25.895070	3.001071	48.971000
25.919847	2.998949	49.018000
26.003773	2.994654	49.064000
26.029699	2.979013	49.219000
26.115564	2.944828	49.265000
26.141178	2.938518	49.424000
26.166282	2.932891	49.471000
26.190687	2.930923	49.516000
26.215197	2.926859	49.562000
26.239859	2.922641	49.608000
26.265072	2.921101	49.654000
26.290343	2.917279	49.702000
26.315430	2.915504	49.747000
26.341098	2.911804	49.794000
26.366115	2.912217	49.841000
26.391286	2.905358	49.887000
26.416265	2.901623	49.933000
26.440939	2.895118	49.978000
26.465332	2.892125	50.025000
26.490901	2.885235	50.072000
26.516235	2.877033	50.118000
26.714990	2.870572	50.164000
26.740313	2.853655	50.532000
26.765138	2.852145	50.578000
26.790976	2.850474	50.624000
26.815738	2.848839	50.671000
26.841316	2.847004	50.717000
26.865849	2.842837	50.764000
26.889691	2.841872	50.809000
26.915310	2.839744	50.855000
26.940596	2.841943	50.901000
26.965671	2.841902	50.948000
26.990909	2.841902	50.994000
27.016349	2.836287	51.040000
27.041251	2.834676	51.087000
27.066718	2.833782	51.133000
27.090752	2.834969	51.179000
27.115535	2.837643	51.225000
27.199644	2.840313	51.271000
27.225009	2.833842	51.427000
27.424312	2.830486	51.473000
27.449846	2.834342	51.841000
27.474877	2.832942	51.887000
27.499911	2.830547	51.933000
27.524825	2.830466	51.980000
27.549706	2.834777	52.027000
27.574356	2.840485	52.073000
27.599685	2.846458	52.119000
27.624258	2.853565	52.165000
27.649604	2.857803	52.211000
27.675215	2.863845	52.258000
27.700613	2.865828	52.304000
27.788285	2.868281	52.350000
27.813623	2.870593	52.513000
27.902259	2.868751	52.559000
27.927544	2.865869	52.724000
27.953129	2.864331	52.771000
27.977601	2.860550	52.815000
28.002899	2.860641	52.862000
28.027947	2.866430	52.909000
28.052171	2.870310	52.955000
28.077436	2.877104	53.001000
28.102135	2.882661	53.048000
28.127771	2.888324	53.094000
28.152978	2.890898	53.140000
28.178272	2.891712	53.187000
28.203397	2.891217	53.233000
28.228326	2.890455	53.279000
28.253349	2.889742	53.325000
28.278067	2.889289	53.371000
28.303332	2.890585	53.417000
28.386645	2.887435	53.464000
28.412300	2.886189	53.619000
28.498296	2.897601	53.665000
28.523809	2.902486	53.824000
28.549197	2.906226	53.871000
28.573766	2.910426	53.917000
28.598563	2.911683	53.963000
28.622731	2.911926	54.009000
28.648179	2.913762	54.055000
28.673352	2.910940	54.102000
28.698826	2.915281	54.148000
28.723845	2.921010	54.194000
28.748972	2.927626	54.241000
28.774629	2.933905	54.286000
28.798844	2.938376	54.332000
28.823294	2.945019	54.379000
28.848471	2.950207	54.425000
28.873193	2.955876	54.471000
28.898719	2.958530	54.518000
28.983114	2.962851	54.563000
29.008166	2.972935	54.718000
29.094970	2.986139	54.764000
29.119075	2.990314	54.924000
29.144107	2.993428	54.971000
29.168917	2.998233	55.017000
29.194528	3.002946	55.063000
29.219261	3.009099	55.110000
29.244275	3.010094	55.156000
29.269745	3.012577	55.202000
29.294814	3.009674	55.248000
29.320639	3.010718	55.295000
29.345448	3.012015	55.341000
29.370162	3.013824	55.387000
29.394834	3.016815	55.433000
29.419769	3.017625	55.480000
29.445280	3.018841	55.526000
29.469899	3.016876	55.572000
29.495055	3.015111	55.619000
29.694485	3.012445	55.664000
29.719381	3.023221	56.031000
29.744197	3.016775	56.078000
29.768555	3.013247	56.124000
29.793711	3.008295	56.170000
29.818525	3.006151	56.217000
29.844191	3.006839	56.262000
29.868773	3.004787	56.309000
29.894011	3.005228	56.355000
29.919264	3.000746	56.401000
29.944138	2.999307	56.446000
29.969541	2.994194	56.494000
29.993627	2.989919	56.539000
30.018802	2.984821	56.586000
30.043179	2.977695	56.632000
30.068673	2.974591	56.679000
30.093854	2.970441	56.725000
30.178062	2.967445	56.771000
30.202578	2.948517	56.925000
30.401699	2.926218	56.971000
30.426397	2.921563	57.339000
30.451372	2.918546	57.386000
30.476567	2.913660	57.432000
30.501519	2.913131	57.477000
30.526776	2.916204	57.524000
30.551878	2.924189	57.570000
30.577097	2.931643	57.617000
30.602341	2.933894	57.662000
30.626463	2.934570	57.709000
30.651190	2.934762	57.754000
30.675672	2.936752	57.801000
30.766940	2.939809	57.846000
30.791548	2.934541	58.013000
30.880778	2.934874	58.059000
30.905997	2.939195	58.224000
30.931110	2.943499	58.269000
30.955747	2.947614	58.316000
30.980006	2.952876	58.362000
31.005290	2.952720	58.408000
31.029992	2.956505	58.454000
31.055304	2.959973	58.500000
31.080893	2.966146	58.546000
31.106183	2.973809	58.592000
31.131063	2.979365	58.639000
31.155903	2.986714	58.685000
31.180521	2.990151	58.731000
31.205100	2.994420	58.778000
31.230435	2.997968	58.824000
31.255098	3.005489	58.869000
31.280356	3.009572	58.916000
31.364547	3.020696	58.962000
31.389436	3.050308	59.117000
31.477412	3.080544	59.162000
31.501294	3.090016	59.324000
31.526248	3.096270	59.370000
31.551248	3.107309	59.416000
31.575812	3.117135	59.462000
31.601628	3.125096	59.509000
31.626601	3.128210	59.554000
31.652147	3.134832	59.601000
31.676957	3.144476	59.647000
31.701859	3.154727	59.693000
31.726306	3.163407	59.740000
31.751334	3.172298	59.786000
31.776650	3.184156	59.832000
31.801705	3.192799	59.878000
31.827120	3.203142	59.925000
31.851980	3.212847	59.971000
31.877305	3.220646	60.017000
31.960332	3.230352	60.063000
31.984938	3.249033	60.218000
32.071702	3.274108	60.263000
32.096700	3.272543	60.424000
32.122342	3.272272	60.471000
32.147920	3.274877	60.517000
32.172647	3.282150	60.563000
32.198145	3.288322	60.609000
32.222282	3.299653	60.655000
32.247453	3.307834	60.700000
32.271299	3.315512	60.746000
32.296574	3.324970	60.793000
32.321837	3.332198	60.839000
32.347219	3.338179	60.885000
32.372448	3.340062	60.931000
32.397223	3.346674	60.978000
32.422632	3.354517	61.024000
32.447861	3.363128	61.070000
32.472267	3.370163	61.116000
32.670282	3.376956	61.162000
32.695234	3.417182	61.528000
32.720889	3.417885	61.575000
32.745610	3.417561	61.621000
32.770647	3.418787	61.668000
32.795964	3.423866	61.713000
32.820912	3.425525	61.760000
32.846240	3.429402	61.806000
32.870497	3.432370	61.852000
32.894954	3.435247	61.898000
32.920297	3.438463	61.944000
32.945138	3.441465	61.990000
32.970305	3.443398	62.036000
32.995833	3.445750	62.082000
33.020678	3.449460	62.128000
33.045545	3.448612	62.175000
33.071358	3.448471	62.221000
33.154013	3.445124	62.267000
33.179633	3.440934	62.422000
33.378539	3.428903	62.469000
33.404294	3.432703	62.837000
33.429503	3.435646	62.883000
33.454278	3.434520	62.929000
33.480014	3.432591	62.976000
33.504497	3.427968	63.021000
33.529484	3.427717	63.067000
33.553810	3.425426	63.114000
33.578939	3.424522	63.161000
33.604229	3.421382	63.207000
33.628977	3.419242	63.253000
33.654448	3.418717	63.298000
33.744859	3.418198	63.345000
33.770307	3.405953	63.513000
33.859746	3.406740	63.559000
33.883918	3.406937	63.724000
33.908471	3.407503	63.769000
33.934256	3.407876	63.816000
33.959235	3.405625	63.862000
33.984479	3.406135	63.909000
34.009984	3.403298	63.955000
34.034725	3.398836	64.001000
34.059919	3.393301	64.047000
34.084087	3.389075	64.093000
34.108640	3.385189	64.138000
34.133876	3.385089	64.185000
34.159182	3.386415	64.231000
34.184479	3.383438	64.278000
34.209716	3.381812	64.324000
34.234975	3.377871	64.370000
34.259858	3.376271	64.416000
34.342716	3.374313	64.462000
34.367764	3.361800	64.616000
34.454595	3.356625	64.663000
34.480185	3.354043	64.824000
34.505279	3.351216	64.871000
34.530742	3.351972	64.917000
34.555921	3.354253	64.963000
34.581107	3.353436	65.010000
34.606432	3.353618	65.056000
34.631353	3.350100	65.102000
34.655790	3.349025	65.148000
34.680320	3.345083	65.194000
34.705402	3.340865	65.240000
34.730562	3.336760	65.286000
34.755852	3.334520	65.332000
34.780889	3.335005	65.378000
34.806167	3.332853	65.425000
34.831703	3.332613	65.472000
34.856740	3.331042	65.518000
34.939790	3.332329	65.564000
34.964757	3.326702	65.719000
35.051404	3.320448	65.764000
35.076367	3.317565	65.924000
35.101273	3.320812	65.970000
35.126759	3.318691	66.017000
35.151285	3.318369	66.062000
35.176402	3.321155	66.109000
35.200309	3.321927	66.155000
35.225638	3.324899	66.201000
35.250567	3.323845	66.247000
35.275868	3.325960	66.293000
35.301024	3.324188	66.339000
35.326291	3.324280	66.385000
35.351646	3.323405	66.431000
35.376433	3.323184	66.478000
35.401051	3.321887	66.524000
35.425842	3.322008	66.571000
35.450732	3.326247	66.617000
35.650199	3.327706	66.663000
35.674928	3.335255	67.029000
35.700030	3.331173	67.076000
35.725297	3.335376	67.122000
35.750810	3.335184	67.169000
35.775408	3.338705	67.215000
35.799976	3.344271	67.261000
35.824674	3.348122	67.307000
35.849926	3.352103	67.353000
35.875332	3.357983	67.400000
35.900614	3.359428	67.446000
35.925474	3.358656	67.492000
35.950380	3.357692	67.537000
35.975432	3.357035	67.583000
36.000261	3.361058	67.629000
36.024625	3.362748	67.676000
36.049581	3.365418	67.721000
36.133665	3.368175	67.769000
36.158913	3.377345	67.923000
36.358682	3.382636	67.969000
36.383853	3.384795	68.337000
36.408598	3.386607	68.384000
36.432666	3.389803	68.429000
36.457857	3.389327	68.476000
36.482816	3.386295	68.522000
36.507684	3.385198	68.568000
36.532724	3.383863	68.614000
36.558241	3.382816	68.660000
36.583961	3.382191	68.707000
36.608552	3.385107	68.754000
36.633865	3.383941	68.800000
36.723777	3.384573	68.845000
36.749279	3.389943	69.013000
36.837853	3.393991	69.060000
36.863336	3.395177	69.225000
36.888676	3.400527	69.271000
36.913670	3.404176	69.317000
36.938837	3.410597	69.363000
36.964312	3.417612	69.410000
36.989778	3.419808	69.456000
37.014431	3.426999	69.502000
37.038753	3.434268	69.549000
37.063509	3.441910	69.594000
37.088311	3.448122	69.641000
37.113851	3.452585	69.687000
37.138991	3.457787	69.734000
37.164857	3.460595	69.780000
37.190140	3.464315	69.826000
37.215211	3.467721	69.873000
37.240259	3.476024	69.919000
37.322802	3.481031	69.966000
37.348680	3.503035	70.120000
37.433702	3.508373	70.166000
37.459238	3.509298	70.324000
37.484128	3.510223	70.371000
37.510102	3.516223	70.417000
37.534985	3.521247	70.462000
37.559860	3.528202	70.509000
37.584835	3.533571	70.555000
37.609695	3.539399	70.602000
37.634828	3.542038	70.648000
37.659445	3.544762	70.693000
37.685154	3.548316	70.740000
37.710252	3.551419	70.785000
37.734939	3.554588	70.832000
37.761121	3.558678	70.878000
37.785320	3.563737	70.925000
37.809922	3.567118	70.971000
37.834943	3.571901	71.017000
37.919300	3.571901	71.063000
37.944801	3.584639	71.219000
38.030818	3.595102	71.265000
38.056146	3.597700	71.425000
38.081578	3.598085	71.471000
38.106699	3.599151	71.518000
38.130265	3.604888	71.563000
38.156331	3.609559	71.609000
38.181114	3.613375	71.656000
38.205923	3.616352	71.703000
38.231167	3.619295	71.749000
38.256999	3.622867	71.795000
38.281782	3.628737	71.841000
38.306777	3.633680	71.887000
38.331652	3.637916	71.933000
38.355601	3.644952	71.978000
38.380403	3.651084	72.025000
38.405774	3.660121	72.070000
38.430945	3.666445	72.116000
38.628771	3.674275	72.162000
38.654726	3.711685	72.529000
38.679416	3.718883	72.574000
38.702939	3.726812	72.621000
38.728168	3.735114	72.667000
38.753235	3.742645	72.712000
38.778153	3.748616	72.759000
38.803120	3.750432	72.805000
38.828575	3.754889	72.851000
38.853570	3.762950	72.897000
38.878821	3.772207	72.944000
38.904419	3.784541	72.990000
38.929014	3.795594	73.036000
38.953531	3.808971	73.083000
38.978656	3.822693	73.129000
39.003973	3.831536	73.176000
39.028641	3.843094	73.222000
39.113651	3.852876	73.268000
39.138242	3.886097	73.423000
39.337908	3.964730	73.469000
39.363117	3.974965	73.837000
39.386344	3.987885	73.883000
39.411961	4.002963	73.928000
39.436417	4.013179	73.974000
39.461596	4.024518	74.020000
39.486487	4.035162	74.066000
39.511857	4.048229	74.112000
39.535492	4.059734	74.157000
39.559553	4.071269	74.203000
39.585411	4.083946	74.249000
39.610140	4.098433	74.294000
39.703740	4.112864	74.341000
39.729518	4.173865	74.512000
39.817913	4.239530	74.559000
39.842569	4.259451	74.724000
39.869042	4.279236	74.771000
39.893518	4.296865	74.817000
39.918120	4.315612	74.863000
39.943545	4.328164	74.910000
39.967744	4.342124	74.956000
39.992769	4.356711	75.002000
40.018405	4.371941	75.049000
40.043879	4.387990	75.095000
40.068439	4.404437	75.142000
40.094217	4.418854	75.188000
40.119949	4.434958	75.234000
40.145074	4.450133	75.280000
40.169292	4.464180	75.327000
40.194398	4.483848	75.373000
40.218805	4.499271	75.419000
40.303346	4.513474	75.465000
40.328505	4.563084	75.620000
40.413922	4.618306	75.665000
40.439666	4.637304	75.825000
40.463987	4.659209	75.870000
40.488213	4.679781	75.917000
40.513450	4.699894	75.962000
40.538479	4.715434	76.009000
40.563511	4.725403	76.056000
40.589600	4.736432	76.102000
40.614599	4.747898	76.148000
40.639528	4.763277	76.194000
40.664449	4.779271	76.241000
40.690523	4.800155	76.288000
40.714587	4.817589	76.334000
40.738898	4.843974	76.379000
40.764199	4.869355	76.426000
40.789040	4.899981	76.471000
40.814265	4.928141	76.519000
40.898679	4.956776	76.564000
40.923685	5.049381	76.719000
41.009805	5.146333	76.765000
41.034038	5.171992	76.924000
41.059536	5.202160	76.971000
41.084365	5.228641	77.016000
41.109064	5.249892	77.062000
41.134031	5.272410	77.108000
41.159674	5.295495	77.154000
41.184623	5.317832	77.200000
41.208664	5.342166	77.245000
41.233347	5.367424	77.292000
41.258480	5.396105	77.338000
41.283659	5.428474	77.385000
41.308553	5.460842	77.430000
41.334135	5.490615	77.476000
41.358499	5.523877	77.523000
41.383839	5.554886	77.569000
41.408764	5.581405	77.614000
41.606648	5.601113	77.660000
41.631800	5.817181	78.027000
41.656314	5.852372	78.073000
41.681316	5.887328	78.119000
41.706118	5.916286	78.165000
41.731992	5.949228	78.212000
41.757413	5.987270	78.257000
41.781973	6.024235	78.305000
41.807670	6.053318	78.351000
41.832476	6.078982	78.397000
41.856821	6.105318	78.443000
41.881827	6.137470	78.489000
41.907017	6.172454	78.536000
41.931747	6.209152	78.582000
41.956779	6.248301	78.628000
41.982753	6.279347	78.674000
42.007436	6.314089	78.720000
42.090202	6.354175	78.766000
42.115896	6.491908	78.921000
42.314855	6.773064	78.967000
42.341014	6.798685	79.337000
42.366004	6.824743	79.383000
42.390699	6.849489	79.429000
42.416484	6.876517	79.476000
42.441686	6.904646	79.521000
42.465728	6.937746	79.568000
42.490376	6.963502	79.613000
42.515893	6.985673	79.660000
42.540146	7.006317	79.706000
42.565447	7.037322	79.752000
42.590853	7.073847	79.798000
42.682785	7.112102	79.845000
42.707303	7.253028	80.013000
42.796977	7.393890	80.060000
42.821610	7.433626	80.225000
42.846550	7.474886	80.271000
42.871360	7.510578	80.316000
42.895540	7.545340	80.362000
42.921276	7.578105	80.409000
42.946727	7.615090	80.456000
42.972263	7.650457	80.502000
42.997069	7.684056	80.549000
43.022567	7.722513	80.594000
43.047711	7.761741	80.641000
43.072029	7.807221	80.687000
43.097465	7.851293	80.733000
43.121695	7.898258	80.779000
43.146382	7.945495	80.825000
43.171591	7.990501	80.871000
43.197319	8.036803	80.918000
43.281607	8.081235	80.964000
43.306609	8.243129	81.119000
43.391887	8.408116	81.165000
43.416913	8.464645	81.325000
43.442291	8.519430	81.371000
43.466932	8.567647	81.417000
43.492061	8.605985	81.463000
43.517500	8.643738	81.509000
43.541988	8.677200	81.555000
43.567485	8.715782	81.600000
43.592998	8.754790	81.647000
43.617332	8.795436	81.694000
43.641734	8.837925	81.740000
43.667497	8.883720	81.786000
43.692645	8.932402	81.833000
43.717366	8.982142	81.879000
43.742226	9.028106	81.925000
43.768484	9.062937	81.971000
43.793233	9.097052	82.017000
43.875953	9.129510	82.062000
43.900640	9.264441	82.218000
43.988247	9.437904	82.263000
44.012922	9.496602	82.425000
44.037732	9.558749	82.471000
44.063245	9.628283	82.517000
44.088750	9.696138	82.563000
44.113041	9.761539	82.609000
44.137601	9.824321	82.655000
44.162642	9.884240	82.701000
44.186906	9.942946	82.747000
44.212258	9.997483	82.793000
44.238001	10.061981	82.839000
44.263038	10.128527	82.885000
44.287444	10.188208	82.932000
44.313022	10.240832	82.978000
44.338535	10.294116	83.023000
44.361939	10.357348	83.070000
44.386899	10.415064	83.115000
44.585835	10.472021	83.162000
44.610729	10.900926	83.529000
44.636254	10.966456	83.575000
44.661310	11.028235	83.621000
44.686396	11.084062	83.668000
44.711379	11.134212	83.713000
44.737157	11.185067	83.760000
44.760883	11.240348	83.806000
44.785171	11.305018	83.851000
44.810603	11.371808	83.898000
44.835962	11.433383	83.944000
44.860534	11.494725	83.989000
44.885544	11.558376	84.035000
44.911525	11.625284	84.082000
44.935632	11.699132	84.128000
44.960553	11.775833	84.174000
44.985509	11.846787	84.220000
45.069908	11.919870	84.267000
45.095790	12.185612	84.421000
45.295007	12.771320	84.467000
45.320235	12.833318	84.837000
45.345833	12.897463	84.883000
45.370915	12.968685	84.929000
45.395514	13.047967	84.976000
45.420270	13.129081	85.022000
45.445291	13.214052	85.068000
45.469901	13.308149	85.114000
45.496033	13.404745	85.161000
45.520873	13.499471	85.206000
45.545449	13.585085	85.253000
45.571085	13.667556	85.298000
45.661665	13.745107	85.346000
45.686214	14.086367	85.513000
45.776744	14.335922	85.560000
45.801004	14.410771	85.725000
45.825568	14.491128	85.770000
45.851404	14.582702	85.817000
45.876053	14.669625	85.863000
45.900732	14.753314	85.908000
45.925945	14.841402	85.955000
45.951742	14.940812	86.001000
45.976087	15.033687	86.047000
45.999699	15.111472	86.093000
46.025315	15.181263	86.139000
46.049945	15.254558	86.185000
46.075868	15.339051	86.232000
46.101205	15.428894	86.278000
46.126372	15.523322	86.324000
46.150982	15.622867	86.370000
46.176191	15.741305	86.416000
46.258792	15.869804	86.462000
46.284029	16.261621	86.617000
46.371459	16.479653	86.663000
46.396522	16.549770	86.824000
46.422097	16.627544	86.871000
46.447648	16.702858	86.918000
46.472481	16.780896	86.963000
46.497709	16.861586	87.010000
46.522869	16.947345	87.056000
46.546434	17.024559	87.102000
46.570814	17.104493	87.147000
46.596353	17.200228	87.193000
46.621117	17.312508	87.238000
46.645554	17.425361	87.284000
46.671444	17.537844	87.330000
46.696085	17.651905	87.376000
46.720145	17.767249	87.422000
46.745340	17.881910	87.468000
46.770614	17.989188	87.514000
46.855048	18.097279	87.561000
46.880115	18.474918	87.715000
46.967584	18.884907	87.762000
46.992797	18.982611	87.924000
47.018275	19.074719	87.970000
47.042766	19.175622	88.016000
47.067361	19.296595	88.063000
47.092225	19.430671	88.109000
47.116343	19.565005	88.155000
47.142325	19.686533	88.200000
47.167180	19.787253	88.246000
47.192129	19.877383	88.293000
47.217273	19.970794	88.338000
47.242778	20.073617	88.385000
47.267403	20.178844	88.431000
47.291384	20.276259	88.478000
47.317066	20.382365	88.523000
47.341791	20.511777	88.570000
47.366770	20.658482	88.615000
47.566305	20.809188	88.661000
47.591353	21.671183	89.029000
47.615994	21.782451	89.075000
47.641227	21.890486	89.121000
47.666763	22.004184	89.167000
47.690451	22.130932	89.213000
47.715376	22.251866	89.260000
47.740896	22.370406	89.306000
47.765349	22.489359	89.352000
47.790766	22.594362	89.398000
47.816045	22.688052	89.444000
47.841473	22.795213	89.490000
47.865918	22.921462	89.536000
47.890927	23.057625	89.583000
47.915591	23.192205	89.629000
47.939721	23.336683	89.675000
47.965914	23.501584	89.721000
48.049629	23.662777	89.767000
48.075015	24.226368	89.922000
48.274651	25.570036	89.969000
48.299119	25.686401	90.337000
48.324474	25.805662	90.383000
48.349319	25.945015	90.429000
48.373406	26.105622	90.476000
48.398984	26.266834	90.522000
48.425070	26.425853	90.569000
48.450214	26.548831	90.615000
48.474743	26.638724	90.661000
48.500333	26.719323	90.708000
48.525834	26.796062	90.755000
48.550264	26.884590	90.800000
48.640433	26.999366	90.846000
48.665654	27.512877	91.013000
48.754271	28.266419	91.059000
48.780261	28.434259	91.225000
48.805163	28.558957	91.271000
48.830130	28.661773	91.318000
48.855985	28.770963	91.364000
48.881167	28.894158	91.411000
48.905624	29.018005	91.456000
48.930499	29.136551	91.502000
48.955732	29.274702	91.548000
48.980142	29.442168	91.596000
49.005524	29.617799	91.642000
49.030949	29.811302	91.688000
49.056538	30.048473	91.735000
49.081748	30.317310	91.781000
49.107003	30.587185	91.828000
49.132482	30.827693	91.873000
49.157004	31.022432	91.921000
49.240400	31.187596	91.966000
49.265098	31.679064	92.121000
49.350527	32.151129	92.168000
49.376001	32.240590	92.324000
49.400665	32.335967	92.371000
49.426547	32.476547	92.417000
49.451203	32.654650	92.463000
49.476128	32.825509	92.510000
49.501122	33.001516	92.557000
49.526063	33.190481	92.603000
49.551030	33.367664	92.649000
49.576374	33.530011	92.696000
49.601860	33.686490	92.742000
49.627020	33.858578	92.787000
49.652018	34.028189	92.833000
49.677316	34.198748	92.880000
49.700919	34.365428	92.926000
49.725337	34.531556	92.972000
49.751227	34.715866	93.019000
49.835568	34.929160	93.064000
49.860670	35.729897	93.220000
49.946321	36.356329	93.266000
49.971834	36.530784	93.425000
49.997036	36.678663	93.471000
50.021143	36.847664	93.518000
50.046056	37.079494	93.564000
50.071777	37.332580	93.610000
50.097005	37.601079	93.656000
50.121615	37.888111	93.702000
50.146686	38.180388	93.748000
50.172399	38.446575	93.794000
50.196402	38.637946	93.841000
50.221750	38.769803	93.887000
50.246406	38.881646	93.933000
50.270997	38.997952	93.979000
50.295968	39.136948	94.026000
50.322257	39.308404	94.071000
50.347601	39.521473	94.119000
50.546180	39.723116	94.164000
50.571597	41.083759	94.532000
50.596353	41.247765	94.578000
50.620222	41.396362	94.624000
50.645201	41.534761	94.670000
50.671063	41.692036	94.716000
50.695335	41.850174	94.763000
50.720886	42.011247	94.809000
50.746718	42.183260	94.855000
50.771674	42.361160	94.902000
50.797053	42.581239	94.949000
