Sample	2mm tape 
date	07/01/2025
	
Temperature (K)	77.00
Angle (deg.)	90.000000
field / T	0.000000
	
		
Approx. trace time (s)	120.0	
		
Current / A	V1  -sample/ uV	time/s
-0.018432	-0.636975	0.000000
-0.018726	-0.629838	0.058000
-0.019095	-0.623372	0.103000
-0.018438	-0.616731	0.149000
-0.019271	-0.610098	0.195000
-0.018346	-0.604307	0.242000
-0.018315	-0.596941	0.288000
-0.018174	-0.591648	0.335000
-0.018646	-0.583903	0.380000
-0.018278	-0.576552	0.428000
-0.019327	-0.571830	0.474000
-0.018487	-0.566637	0.520000
-0.019370	-0.562261	0.565000
-0.018432	-0.557183	0.612000
-0.019290	-0.551191	0.657000
-0.018358	-0.545340	0.703000
-0.014448	-0.538899	0.749000
0.017230	-0.529924	0.797000
0.099824	-0.518701	0.842000
0.302253	-0.448981	0.997000
0.327671	-0.447907	1.369000
0.351758	-0.446452	1.415000
0.376587	-0.444414	1.460000
0.402729	-0.442531	1.507000
0.427828	-0.440392	1.554000
0.452773	-0.440412	1.599000
0.477580	-0.438913	1.646000
0.502900	-0.438712	1.693000
0.527833	-0.438702	1.738000
0.552437	-0.437914	1.785000
0.577346	-0.436629	1.832000
0.602504	-0.435903	1.877000
0.810275	-0.436113	1.924000
0.835648	-0.406666	2.307000
0.860630	-0.399711	2.353000
0.885470	-0.392473	2.399000
0.910520	-0.383910	2.445000
0.936302	-0.376739	2.492000
0.960867	-0.368802	2.539000
0.985287	-0.360114	2.585000
1.010478	-0.350105	2.631000
1.035449	-0.341572	2.677000
1.060911	-0.332744	2.724000
1.086419	-0.324812	2.770000
1.111088	-0.314603	2.816000
1.136192	-0.305244	2.862000
1.161988	-0.294300	2.908000
1.186691	-0.282664	2.955000
1.211754	-0.273015	3.002000
1.295480	-0.261745	3.048000
1.379681	-0.212180	3.203000
1.405324	-0.204268	3.358000
1.429617	-0.194094	3.404000
1.454601	-0.186436	3.449000
1.478718	-0.179669	3.495000
1.503978	-0.175131	3.543000
1.529434	-0.169793	3.589000
1.555181	-0.166480	3.636000
1.580127	-0.164092	3.682000
1.605109	-0.163823	3.728000
1.630916	-0.164332	3.775000
1.655799	-0.165017	3.821000
1.680344	-0.167041	3.866000
1.704241	-0.167514	3.913000
1.729328	-0.168869	3.959000
1.754693	-0.167865	4.005000
1.779859	-0.169724	4.051000
1.805832	-0.169480	4.098000
1.889782	-0.170919	4.144000
1.975557	-0.180273	4.300000
1.999516	-0.181898	4.457000
2.024726	-0.184521	4.504000
2.049604	-0.186136	4.550000
2.074727	-0.188488	4.596000
2.100028	-0.187663	4.642000
2.125585	-0.187363	4.688000
2.150799	-0.187353	4.735000
2.175965	-0.185816	4.781000
2.201055	-0.183217	4.828000
2.225939	-0.183307	4.874000
2.250530	-0.181048	4.921000
2.275845	-0.179139	4.967000
2.300239	-0.176430	5.013000
2.325871	-0.174861	5.059000
2.350885	-0.172003	5.105000
2.376686	-0.168085	5.152000
2.401846	-0.166111	5.198000
2.484171	-0.162244	5.245000
2.570591	-0.158601	5.398000
2.595811	-0.159675	5.558000
2.621277	-0.158671	5.605000
2.646185	-0.160060	5.651000
2.672006	-0.159795	5.697000
2.697058	-0.161743	5.743000
2.722225	-0.162334	5.790000
2.747092	-0.164202	5.836000
2.771825	-0.167121	5.882000
2.796709	-0.169219	5.929000
2.821220	-0.171638	5.975000
2.846797	-0.173737	6.022000
2.871754	-0.176710	6.067000
2.896679	-0.181049	6.113000
2.922513	-0.179529	6.160000
2.947294	-0.180844	6.206000
2.972639	-0.180283	6.252000
2.997249	-0.180043	6.299000
3.080895	-0.178365	6.345000
3.280954	-0.135728	6.499000
3.305808	-0.131571	6.870000
3.331630	-0.127259	6.915000
3.356683	-0.122107	6.963000
3.382132	-0.120552	7.009000
3.407536	-0.117624	7.056000
3.432695	-0.112062	7.102000
3.457614	-0.108330	7.148000
3.482604	-0.102797	7.195000
3.507624	-0.095048	7.241000
3.532246	-0.088765	7.288000
3.557970	-0.081076	7.334000
3.582920	-0.074990	7.381000
3.789066	-0.070302	7.427000
3.814196	-0.040005	7.807000
3.839155	-0.036168	7.852000
3.863945	-0.032194	7.898000
3.888205	-0.026973	7.945000
3.913682	-0.023844	7.991000
3.938566	-0.021675	8.038000
3.963981	-0.019627	8.084000
3.989255	-0.019287	8.129000
4.014668	-0.019767	8.177000
4.039970	-0.017098	8.223000
4.065180	-0.014539	8.270000
4.090105	-0.013285	8.316000
4.114574	-0.013736	8.362000
4.139238	-0.013625	8.409000
4.164904	-0.064736	8.455000
4.189992	-0.017723	8.502000
4.274550	-0.015475	8.549000
4.358203	-0.019377	8.704000
4.383278	-0.018978	8.858000
4.407989	-0.020082	8.904000
4.433260	-0.021916	8.951000
4.458671	-0.023745	8.997000
4.483161	-0.027617	9.043000
4.509008	-0.030821	9.090000
4.534188	-0.035228	9.136000
4.559833	-0.038711	9.182000
4.584492	-0.043707	9.229000
4.609862	-0.046115	9.275000
4.634287	-0.050089	9.322000
4.659090	-0.053712	9.368000
4.684134	-0.056654	9.414000
4.709604	-0.061572	9.461000
4.735071	-0.065980	9.507000
4.759833	-0.072761	9.553000
4.785209	-0.081276	9.599000
4.868784	-0.088297	9.646000
4.953107	-0.150000	9.801000
4.978688	-0.162568	9.958000
5.003876	-0.174440	10.004000
5.029486	-0.186517	10.050000
5.054003	-0.199404	10.096000
5.079329	-0.213596	10.142000
5.104615	-0.228544	10.189000
5.128741	-0.245270	10.235000
5.153784	-0.265603	10.281000
5.178380	-0.286692	10.328000
5.204127	-0.309828	10.374000
5.229464	-0.332234	10.421000
5.254499	-0.356626	10.467000
5.280046	-0.381667	10.513000
5.305436	-0.406377	10.560000
5.330541	-0.432152	10.606000
5.354935	-0.457202	10.652000
5.379946	-0.483327	10.698000
5.463838	-0.509546	10.745000
5.549804	-0.629573	10.900000
5.574405	-0.647104	11.057000
5.599495	-0.662523	11.104000
5.624482	-0.678747	11.149000
5.648863	-0.695948	11.195000
5.673490	-0.712132	11.242000
5.698275	-0.726611	11.288000
5.723552	-0.740953	11.333000
5.749085	-0.754656	11.379000
5.774196	-0.767197	11.426000
5.799284	-0.776911	11.472000
5.823820	-0.787475	11.518000
5.849164	-0.793656	11.564000
5.873435	-0.798951	11.610000
5.898127	-0.804811	11.657000
5.923035	-0.809295	11.702000
5.948153	-0.815155	11.748000
5.973366	-0.820815	11.794000
6.057711	-0.826233	11.841000
6.260369	-0.838399	11.996000
6.285769	-0.835568	12.370000
6.310844	-0.832065	12.417000
6.336239	-0.827572	12.463000
6.361117	-0.822562	12.509000
6.385710	-0.820470	12.555000
6.411029	-0.816121	12.602000
6.435667	-0.812352	12.648000
6.460649	-0.809665	12.694000
6.485966	-0.805706	12.740000
6.511126	-0.801272	12.787000
6.536090	-0.796548	12.833000
6.561681	-0.790067	12.879000
6.767956	-0.782891	12.926000
6.792560	-0.693100	13.307000
6.817389	-0.680348	13.353000
6.842526	-0.667037	13.400000
6.867332	-0.653930	13.446000
6.892805	-0.641508	13.492000
6.917903	-0.627081	13.538000
6.943557	-0.615190	13.585000
6.969196	-0.602517	13.632000
6.993349	-0.591538	13.677000
7.018666	-0.579565	13.723000
7.043108	-0.565693	13.770000
7.068099	-0.553292	13.815000
7.093131	-0.540104	13.862000
7.118745	-0.527347	13.909000
7.143888	-0.515564	13.955000
7.169449	-0.502346	14.002000
7.253703	-0.489942	14.048000
7.336099	-0.414388	14.203000
7.361634	-0.402190	14.358000
7.387017	-0.388059	14.404000
7.412344	-0.373676	14.451000
7.437491	-0.360629	14.497000
7.462804	-0.348083	14.543000
7.488335	-0.333890	14.589000
7.512919	-0.320253	14.636000
7.537785	-0.303978	14.682000
7.562972	-0.289220	14.729000
7.587733	-0.274791	14.775000
7.613208	-0.260899	14.821000
7.637922	-0.249309	14.867000
7.663121	-0.236607	14.913000
7.687660	-0.225087	14.958000
7.711779	-0.213867	15.004000
7.736621	-0.203333	15.050000
7.761644	-0.193914	15.095000
7.846107	-0.187433	15.142000
7.933103	-0.178590	15.297000
7.958392	-0.181568	15.458000
7.983735	-0.184257	15.504000
8.008367	-0.188949	15.550000
8.033568	-0.191702	15.597000
8.057631	-0.194620	15.643000
8.082695	-0.198708	15.689000
8.108046	-0.203737	15.735000
8.133410	-0.209042	15.782000
8.158247	-0.212570	15.827000
8.183622	-0.216994	15.874000
8.209169	-0.218952	15.919000
8.234039	-0.221829	15.966000
8.259530	-0.224511	16.012000
8.283230	-0.226353	16.059000
8.308425	-0.229326	16.105000
8.333391	-0.230532	16.151000
8.358282	-0.232373	16.197000
8.442812	-0.233580	16.243000
8.528928	-0.231869	16.398000
8.554378	-0.231338	16.557000
8.578642	-0.227860	16.604000
8.603109	-0.224352	16.649000
8.628276	-0.220733	16.696000
8.653425	-0.216775	16.742000
8.678848	-0.214117	16.789000
8.703787	-0.211254	16.834000
8.729467	-0.208682	16.881000
8.754264	-0.206670	16.927000
8.779669	-0.203798	16.974000
8.804176	-0.200931	17.020000
8.828730	-0.198779	17.065000
8.853896	-0.196257	17.113000
8.879378	-0.195471	17.159000
8.904257	-0.192648	17.205000
8.929533	-0.189595	17.252000
8.954987	-0.187943	17.298000
9.038469	-0.184402	17.344000
9.239581	-0.164122	17.499000
9.264723	-0.162518	17.870000
9.289270	-0.158955	17.916000
9.314283	-0.155472	17.963000
9.339180	-0.150000	18.009000
9.364195	-0.145603	18.055000
9.390068	-0.139541	18.101000
9.414958	-0.132275	18.147000
9.440082	-0.125600	18.194000
9.465400	-0.116470	18.241000
9.490511	-0.110233	18.287000
9.515286	-0.102288	18.333000
9.540505	-0.095691	18.379000
9.746713	-0.090260	18.426000
9.771806	-0.030980	18.807000
9.796801	-0.022591	18.853000
9.821830	-0.012261	18.899000
9.847322	-0.003672	18.945000
9.872183	0.002955	18.992000
9.897608	0.010535	19.038000
9.922125	0.016987	19.084000
9.946878	0.023963	19.131000
9.971754	0.032512	19.177000
9.997306	0.040184	19.224000
10.022416	0.047530	19.270000
10.047576	0.053311	19.316000
10.073453	0.062134	19.362000
10.098435	0.068861	19.409000
10.123437	0.074901	19.455000
10.148420	0.081337	19.501000
10.231166	0.085706	19.547000
10.316173	0.104930	19.702000
10.341286	0.107622	19.858000
10.366675	0.108182	19.904000
10.391597	0.109473	19.951000
10.417365	0.108828	19.997000
10.441524	0.109804	20.044000
10.466166	0.111010	20.090000
10.491270	0.113212	20.136000
10.516496	0.115199	20.182000
10.542004	0.117181	20.228000
10.566995	0.121214	20.274000
10.592051	0.124007	20.321000
10.617734	0.125364	20.367000
10.642479	0.126409	20.414000
10.667283	0.125634	20.460000
10.692156	0.126229	20.506000
10.717030	0.127365	20.553000
10.742507	0.126289	20.599000
10.826742	0.126650	20.645000
10.911971	0.141584	20.800000
10.937193	0.144852	20.958000
10.962392	0.149676	21.005000
10.986876	0.153019	21.050000
11.011606	0.157664	21.096000
11.036607	0.160571	21.142000
11.061657	0.162993	21.188000
11.086809	0.167072	21.234000
11.111694	0.171086	21.280000
11.137022	0.175770	21.327000
11.162078	0.180355	21.373000
11.186447	0.186095	21.419000
11.211392	0.189793	21.465000
11.236533	0.193602	21.512000
11.261913	0.197561	21.558000
11.286851	0.200228	21.604000
11.311944	0.205453	21.651000
11.337456	0.210762	21.696000
11.420697	0.213165	21.744000
11.507079	0.233059	21.898000
11.532219	0.236867	22.057000
11.556760	0.238594	22.104000
11.582041	0.242062	22.150000
11.607488	0.244040	22.196000
11.632398	0.248668	22.242000
11.658069	0.251287	22.288000
11.682817	0.251387	22.335000
11.707874	0.251797	22.381000
11.732157	0.249058	22.428000
11.757284	0.248728	22.474000
11.782473	0.246115	22.520000
11.807682	0.244040	22.566000
11.833045	0.243086	22.612000
11.858177	0.244061	22.659000
11.883371	0.245435	22.705000
11.908512	0.248728	22.751000
11.933593	0.250773	22.798000
12.016861	0.253617	22.844000
12.218220	0.303508	22.998000
12.243261	0.310834	23.371000
12.267803	0.318305	23.417000
12.293640	0.324916	23.463000
12.318410	0.332828	23.510000
12.343843	0.340638	23.556000
12.369408	0.349352	23.602000
12.394550	0.358158	23.649000
12.419858	0.365765	23.695000
12.444588	0.375973	23.741000
12.469265	0.386352	23.788000
12.493352	0.395271	23.833000
12.518751	0.404962	23.880000
12.725367	0.413097	23.927000
12.750653	0.476256	24.306000
12.776007	0.483668	24.353000
12.800982	0.491725	24.399000
12.826117	0.500764	24.446000
12.850652	0.509066	24.492000
12.876020	0.517309	24.539000
12.900720	0.523715	24.585000
12.925286	0.529765	24.631000
12.950811	0.538058	24.677000
12.975712	0.544769	24.723000
13.001753	0.554228	24.769000
13.026532	0.560954	24.815000
13.051298	0.568187	24.861000
13.076245	0.575868	24.908000
13.100962	0.581969	24.955000
13.125777	0.590877	25.001000
13.210544	0.597548	25.047000
13.295223	0.630248	25.202000
13.320813	0.635518	25.358000
13.345080	0.641034	25.405000
13.370055	0.650122	25.451000
13.395184	0.656223	25.498000
13.420600	0.661117	25.545000
13.445739	0.669640	25.591000
13.471163	0.676085	25.637000
13.496592	0.685252	25.684000
13.521892	0.694121	25.729000
13.546537	0.704122	25.776000
13.571745	0.711468	25.822000
13.596756	0.716316	25.869000
13.621280	0.724724	25.915000
13.646516	0.729692	25.961000
13.671641	0.734229	26.009000
13.696797	0.740837	26.055000
13.722068	0.745494	26.101000
13.806494	0.753028	26.147000
13.890044	0.779089	26.302000
13.914990	0.780979	26.458000
13.940596	0.782472	26.504000
13.965689	0.781863	26.550000
13.990652	0.783138	26.597000
14.015752	0.781763	26.643000
14.040421	0.782592	26.688000
14.064828	0.782917	26.734000
14.089258	0.783318	26.780000
14.114349	0.784002	26.826000
14.139001	0.784332	26.870000
14.163754	0.785696	26.917000
14.188738	0.787855	26.962000
14.214022	0.787250	27.008000
14.238274	0.790524	27.054000
14.262451	0.791819	27.099000
14.287180	0.795251	27.145000
14.311980	0.796256	27.191000
14.397520	0.797169	27.237000
14.485588	0.808289	27.394000
14.510954	0.810288	27.558000
14.535783	0.814675	27.603000
14.560917	0.819156	27.649000
14.586554	0.822755	27.696000
14.611573	0.828173	27.743000
14.635812	0.833634	27.789000
14.661378	0.840900	27.835000
14.686226	0.846452	27.882000
14.711883	0.852173	27.928000
14.737347	0.858994	27.975000
14.762310	0.863817	28.021000
14.787294	0.871463	28.068000
14.812384	0.877505	28.113000
14.837447	0.882816	28.160000
14.862331	0.889816	28.206000
14.888042	0.895091	28.253000
14.912178	0.902007	28.299000
14.997093	0.909053	28.346000
15.197337	0.969305	28.500000
15.222812	0.978864	28.871000
15.248064	0.987692	28.917000
15.273442	0.994283	28.963000
15.298309	1.003367	29.009000
15.323454	1.013651	29.055000
15.348589	1.023651	29.102000
15.373246	1.035111	29.147000
15.398247	1.046157	29.195000
15.423424	1.056987	29.241000
15.448720	1.066020	29.288000
15.473815	1.076790	29.334000
15.499018	1.085523	29.380000
15.705923	1.095263	29.426000
15.730390	1.187433	29.807000
15.755399	1.198172	29.854000
15.780094	1.210676	29.899000
15.804872	1.220249	29.946000
15.830173	1.228071	29.992000
15.855668	1.236859	30.039000
15.881108	1.243067	30.086000
15.906251	1.247539	30.132000
15.931550	1.253112	30.179000
15.956587	1.257560	30.225000
15.981530	1.260962	30.271000
16.006468	1.262337	30.317000
16.031220	1.265490	30.364000
16.056303	1.268477	30.410000
16.081721	1.268782	30.457000
16.107240	1.270437	30.504000
16.191178	1.270307	30.550000
16.273260	1.268169	30.705000
16.298571	1.269473	30.858000
16.324336	1.268962	30.904000
16.348975	1.269852	30.950000
16.374184	1.270826	30.997000
16.399820	1.271161	31.042000
16.424515	1.272806	31.089000
16.449436	1.271832	31.135000
16.473762	1.271391	31.180000
16.498345	1.268447	31.227000
16.523697	1.266664	31.273000
16.548871	1.265610	31.319000
16.574048	1.262960	31.365000
16.598883	1.264606	31.410000
16.624194	1.263471	31.456000
16.649354	1.264816	31.504000
16.673716	1.263780	31.550000
16.698812	1.261866	31.595000
16.782598	1.262086	31.642000
16.870078	1.252902	31.797000
16.894681	1.251758	31.957000
16.919986	1.251012	32.004000
16.945213	1.249339	32.050000
16.970355	1.251107	32.096000
16.994959	1.251956	32.142000
17.019610	1.251908	32.189000
17.044727	1.252542	32.235000
17.069671	1.252196	32.282000
17.095376	1.254750	32.328000
17.120780	1.253456	32.374000
17.145400	1.252812	32.420000
17.170970	1.252832	32.466000
17.195865	1.252046	32.512000
17.220780	1.255131	32.559000
17.245066	1.254116	32.605000
17.269389	1.254720	32.651000
17.295269	1.256235	32.697000
17.379027	1.256245	32.744000
17.466044	1.264565	32.897000
17.491199	1.261796	33.058000
17.516699	1.257189	33.105000
17.541528	1.251928	33.151000
17.565977	1.244051	33.197000
17.590205	1.239019	33.243000
17.615837	1.232173	33.289000
17.640589	1.226171	33.335000
17.666111	1.218986	33.382000
17.691471	1.210406	33.428000
17.716649	1.200640	33.474000
17.741576	1.187848	33.520000
17.766805	1.175510	33.566000
17.790831	1.160989	33.613000
17.815668	1.144847	33.659000
17.841060	1.128961	33.706000
17.866379	1.110342	33.752000
17.891690	1.092329	33.798000
17.975507	1.075684	33.844000
18.176769	0.907397	33.999000
18.201750	0.892898	34.370000
18.227288	0.877085	34.416000
18.251829	0.862109	34.463000
18.276627	0.846862	34.509000
18.301447	0.829406	34.556000
18.326289	0.815859	34.602000
18.352361	0.798774	34.648000
18.377008	0.783408	34.695000
18.402761	0.767997	34.742000
18.428018	0.750679	34.788000
18.453281	0.734429	34.835000
18.478652	0.715569	34.881000
18.683485	0.698190	34.928000
18.708295	0.549949	35.307000
18.733729	0.531061	35.353000
18.758754	0.513921	35.399000
18.783910	0.494652	35.445000
18.809269	0.476690	35.492000
18.834093	0.457093	35.539000
18.859575	0.437189	35.585000
18.884536	0.421077	35.631000
18.909016	0.400264	35.677000
18.933445	0.382205	35.723000
18.958903	0.366014	35.770000
18.984039	0.348723	35.816000
19.008983	0.333512	35.861000
19.034589	0.315281	35.907000
19.060078	0.299256	35.955000
19.085146	0.285554	36.001000
19.167814	0.270681	36.048000
19.252463	0.182497	36.202000
19.278194	0.167598	36.358000
19.303060	0.151764	36.404000
19.328110	0.138856	36.449000
19.353427	0.123617	36.496000
19.377568	0.110204	36.542000
19.402526	0.096477	36.589000
19.427054	0.083790	36.635000
19.452311	0.072450	36.681000
19.477580	0.059172	36.726000
19.502365	0.047411	36.772000
19.527730	0.034694	36.818000
19.553118	0.025047	36.864000
19.578301	0.014438	36.911000
19.602542	0.001541	36.957000
19.627223	-0.009603	37.004000
19.652452	-0.019767	37.050000
19.677210	-0.029965	37.096000
19.761659	-0.038776	37.142000
19.848633	-0.091234	37.296000
19.873952	-0.095138	37.457000
19.899066	-0.096767	37.504000
19.923839	-0.098280	37.550000
19.948265	-0.099076	37.596000
19.973282	-0.099204	37.642000
19.998031	-0.095922	37.688000
20.023524	-0.093064	37.735000
20.048855	-0.089850	37.780000
20.073741	-0.085978	37.827000
20.099300	-0.082430	37.874000
20.124343	-0.077703	37.920000
20.148736	-0.075603	37.965000
20.173404	-0.072751	38.012000
20.198160	-0.069573	38.058000
20.223747	-0.064060	38.105000
20.248844	-0.056496	38.151000
20.274330	-0.052437	38.197000
20.357515	-0.046696	38.244000
20.444802	-0.002876	38.398000
20.469814	0.006198	38.558000
20.494478	0.017306	38.605000
20.519244	0.024947	38.651000
20.543967	0.035380	38.697000
20.569401	0.044599	38.742000
20.595029	0.053792	38.789000
20.620122	0.064782	38.836000
20.645525	0.073235	38.882000
20.670573	0.083450	38.928000
20.695243	0.094274	38.975000
20.720341	0.104929	39.021000
20.745106	0.114688	39.067000
20.770512	0.122281	39.114000
20.795886	0.132010	39.161000
20.820585	0.139717	39.207000
20.845846	0.146048	39.253000
20.871079	0.157273	39.299000
20.954381	0.162874	39.346000
21.155670	0.230211	39.500000
21.179842	0.239029	39.870000
21.204819	0.245029	39.915000
21.229934	0.252803	39.962000
21.254885	0.259118	40.008000
21.280638	0.267168	40.056000
21.305882	0.274615	40.102000
21.330922	0.281391	40.148000
21.356347	0.289128	40.194000
21.381519	0.296727	40.241000
21.405759	0.305468	40.287000
21.430054	0.313178	40.333000
21.455292	0.317895	40.379000
21.662183	0.326296	40.425000
21.687388	0.393308	40.807000
21.712813	0.400745	40.854000
21.738210	0.412448	40.900000
21.763406	0.420699	40.946000
21.788518	0.431127	40.993000
21.813433	0.439388	41.039000
21.838026	0.450376	41.086000
21.863019	0.461076	41.132000
21.888049	0.470700	41.179000
21.913593	0.481455	41.224000
21.938426	0.491344	41.270000
21.963991	0.500613	41.316000
21.989060	0.509932	41.363000
22.014171	0.517089	41.409000
22.038257	0.529330	41.454000
22.062644	0.538358	41.500000
22.146431	0.547927	41.547000
22.231604	0.601067	41.701000
22.256894	0.608428	41.858000
22.282105	0.616691	41.904000
22.307311	0.623622	41.951000
22.332245	0.629708	41.997000
22.356890	0.639998	42.044000
22.382023	0.646113	42.090000
22.407176	0.657763	42.136000
22.432084	0.669360	42.183000
22.457843	0.682763	42.229000
22.482812	0.696540	42.275000
22.508853	0.708739	42.322000
22.533890	0.722285	42.368000
22.558700	0.733861	42.415000
22.583715	0.746938	42.461000
22.608235	0.758412	42.507000
22.633735	0.767806	42.554000
22.658633	0.778029	42.599000
22.743502	0.786300	42.646000
22.827949	0.831854	42.801000
22.853479	0.838582	42.958000
22.878013	0.845257	43.005000
22.902667	0.853003	43.051000
22.928118	0.860354	43.097000
22.952959	0.866656	43.144000
22.978355	0.873822	43.190000
23.003599	0.877728	43.237000
23.028929	0.884191	43.282000
23.054246	0.890206	43.329000
23.079025	0.896962	43.375000
23.103609	0.905205	43.422000
23.128040	0.912432	43.467000
23.153399	0.921055	43.513000
23.178866	0.926555	43.560000
23.204108	0.933241	43.606000
23.228826	0.940043	43.652000
23.254227	0.945933	43.698000
23.337579	0.953445	43.745000
23.422910	0.991160	43.900000
23.448594	0.997826	44.058000
23.473894	1.003867	44.105000
23.499262	1.008221	44.152000
23.524551	1.016053	44.198000
23.549539	1.023310	44.244000
23.575031	1.033835	44.291000
23.600156	1.043584	44.337000
23.624470	1.051045	44.383000
23.649099	1.062201	44.429000
23.674397	1.069903	44.476000
23.699411	1.080578	44.522000
23.724943	1.088921	44.568000
23.749970	1.096468	44.615000
23.774843	1.105089	44.660000
23.800485	1.114434	44.707000
23.825782	1.124983	44.753000
23.850813	1.133788	44.799000
23.933541	1.142538	44.846000
24.133472	1.204293	45.001000
24.158997	1.209071	45.370000
24.183801	1.213858	45.416000
24.209141	1.219054	45.462000
24.234773	1.220774	45.509000
24.260316	1.223413	45.556000
24.285232	1.225251	45.602000
24.310126	1.229175	45.649000
24.334846	1.234300	45.695000
24.359416	1.239238	45.741000
24.384715	1.246369	45.787000
24.410080	1.251437	45.834000
24.435009	1.253170	45.880000
24.641919	1.257119	45.926000
24.667211	1.306170	46.307000
24.692261	1.312293	46.353000
24.717150	1.318920	46.400000
24.741744	1.326963	46.445000
24.766633	1.334955	46.493000
24.791622	1.341961	46.538000
24.816378	1.350374	46.584000
24.841981	1.359572	46.631000
24.867263	1.364607	46.676000
24.892071	1.372780	46.723000
24.917185	1.377645	46.769000
24.941130	1.385727	46.814000
24.966023	1.389436	46.861000
24.991238	1.394180	46.906000
25.016307	1.401467	46.953000
25.041332	1.406356	46.999000
25.125535	1.413673	47.045000
25.210800	1.442255	47.200000
25.235577	1.444117	47.357000
25.260814	1.448487	47.404000
25.285524	1.453050	47.450000
25.311056	1.458961	47.497000
25.336384	1.465012	47.543000
25.361431	1.470531	47.590000
25.386953	1.477848	47.636000
25.411993	1.484524	47.682000
25.437376	1.491491	47.729000
25.461281	1.496840	47.774000
25.485689	1.502577	47.821000
25.511237	1.510038	47.867000
25.536179	1.517385	47.913000
25.561804	1.525544	47.960000
25.586992	1.532487	48.005000
25.612355	1.538038	48.052000
25.637574	1.544065	48.099000
25.720778	1.549303	48.145000
25.805991	1.578731	48.300000
25.831226	1.583579	48.458000
25.856647	1.588367	48.505000
25.881952	1.593757	48.551000
25.907240	1.598875	48.596000
25.932340	1.606122	48.643000
25.957248	1.612422	48.689000
25.982396	1.618083	48.736000
26.006484	1.627050	48.782000
26.031476	1.633286	48.828000
26.056468	1.640122	48.875000
26.082045	1.646958	48.921000
26.106830	1.653814	48.967000
26.132665	1.662475	49.013000
26.157853	1.670020	49.059000
26.182848	1.679005	49.106000
26.207890	1.688000	49.152000
26.232669	1.696440	49.198000
26.316334	1.705254	49.245000
26.402389	1.743866	49.400000
26.427631	1.751979	49.559000
26.452668	1.758235	49.605000
26.477789	1.764916	49.651000
26.503321	1.773049	49.697000
26.527919	1.778579	49.744000
26.552418	1.787656	49.790000
26.577556	1.795484	49.836000
26.602710	1.804333	49.883000
26.627954	1.815758	49.929000
26.653373	1.823130	49.975000
26.678419	1.833270	50.021000
26.703665	1.842297	50.068000
26.729105	1.852143	50.114000
26.754299	1.861611	50.161000
26.779126	1.870239	50.207000
26.803813	1.881054	50.254000
26.828782	1.888281	50.299000
26.912793	1.895518	50.347000
27.112886	1.956069	50.501000
27.138259	1.956895	50.871000
27.163443	1.958308	50.916000
27.188772	1.959214	50.963000
27.213526	1.960118	51.009000
27.237642	1.963429	51.055000
27.262548	1.965025	51.101000
27.287321	1.966995	51.147000
27.313019	1.969404	51.194000
27.338217	1.972171	51.240000
27.363465	1.977854	51.286000
27.388313	1.981941	51.332000
27.413935	1.990057	51.379000
27.620119	1.994285	51.425000
27.644412	2.037766	51.806000
27.669308	2.044702	51.852000
27.694579	2.051678	51.898000
27.720000	2.058909	51.945000
27.744960	2.065515	51.991000
27.770215	2.070713	52.037000
27.795355	2.077999	52.084000
27.819727	2.082336	52.129000
27.844157	2.086190	52.175000
27.868898	2.093634	52.221000
27.894409	2.096789	52.268000
27.919877	2.102838	52.314000
27.944737	2.108051	52.361000
27.970094	2.112668	52.407000
27.995394	2.118085	52.452000
28.020673	2.122564	52.499000
28.103320	2.127569	52.546000
28.188689	2.163275	52.700000
28.214292	2.166718	52.858000
28.239655	2.171389	52.905000
28.264811	2.176073	52.951000
28.290593	2.182940	52.997000
28.315646	2.186959	53.044000
28.340725	2.192819	53.090000
28.365896	2.200516	53.137000
28.390149	2.206952	53.183000
28.414590	2.214219	53.229000
28.439974	2.220039	53.275000
28.465145	2.227882	53.321000
28.490597	2.235909	53.367000
28.515455	2.242165	53.413000
28.540593	2.250167	53.459000
28.565270	2.256398	53.506000
28.589723	2.262229	53.551000
28.614769	2.268479	53.598000
28.698749	2.277413	53.644000
28.784883	2.333360	53.799000
28.810459	2.341542	53.958000
28.836348	2.351926	54.005000
28.861443	2.361961	54.052000
28.886769	2.370874	54.098000
28.911610	2.381039	54.144000
28.935974	2.390326	54.191000
28.961253	2.400345	54.237000
28.985819	2.410604	54.284000
29.011001	2.420748	54.330000
29.036130	2.432202	54.376000
29.061226	2.441966	54.421000
29.086458	2.454084	54.467000
29.110884	2.465758	54.513000
29.135375	2.476937	54.559000
29.159215	2.489941	54.604000
29.184513	2.500220	54.650000
29.209616	2.510708	54.696000
29.293775	2.522352	54.742000
29.381305	2.589169	54.897000
29.406134	2.602606	55.057000
29.430593	2.613311	55.104000
29.454980	2.623585	55.150000
29.480335	2.633455	55.196000
29.505741	2.640701	55.243000
29.531088	2.650245	55.289000
29.556329	2.658032	55.335000
29.581348	2.665704	55.382000
29.606820	2.672116	55.428000
29.631776	2.677445	55.475000
29.657314	2.684822	55.522000
29.681765	2.688650	55.568000
29.706223	2.694641	55.614000
29.731298	2.698350	55.660000
29.756410	2.701998	55.707000
29.782153	2.705071	55.753000
29.807741	2.706387	55.800000
29.891934	2.708690	55.846000
30.091639	2.726100	56.002000
30.116800	2.723619	56.370000
30.141720	2.722423	56.417000
30.166184	2.721336	56.463000
30.191166	2.718378	56.510000
30.215905	2.715486	56.555000
30.241457	2.711718	56.601000
30.266476	2.706277	56.648000
30.291891	2.701658	56.694000
30.316633	2.694422	56.739000
30.341730	2.688340	56.787000
30.366543	2.678922	56.832000
30.391111	2.670438	56.879000
30.597911	2.662116	56.925000
30.623138	2.585946	57.307000
30.648132	2.578016	57.352000
30.673399	2.568711	57.399000
30.698405	2.562659	57.445000
30.723517	2.559365	57.491000
30.748507	2.553858	57.537000
30.773081	2.551145	57.583000
30.797564	2.545313	57.630000
30.822885	2.540417	57.676000
30.848050	2.535430	57.722000
30.872860	2.531211	57.768000
30.898457	2.527758	57.814000
30.923790	2.522892	57.861000
30.949462	2.519518	57.908000
30.974072	2.516205	57.954000
30.998778	2.509644	58.000000
31.082367	2.507145	58.046000
31.167753	2.479706	58.201000
31.193147	2.474380	58.358000
31.218210	2.471890	58.405000
31.243700	2.469107	58.451000
31.267888	2.469107	58.497000
31.292786	2.465245	58.543000
31.317744	2.461221	58.590000
31.342788	2.459907	58.636000
31.368028	2.457528	58.682000
31.393174	2.453011	58.728000
31.418426	2.445131	58.774000
31.443681	2.438628	58.821000
31.468816	2.433227	58.867000
31.493958	2.425356	58.914000
31.518551	2.418240	58.960000
31.543476	2.410444	59.006000
31.568505	2.405577	59.053000
31.593943	2.400086	59.099000
31.678117	2.392779	59.145000
31.763492	2.376925	59.300000
31.788951	2.375419	59.458000
31.813111	2.373478	59.505000
31.838377	2.373347	59.550000
31.863142	2.370464	59.597000
31.888442	2.369539	59.642000
31.913707	2.368002	59.689000
31.938475	2.367046	59.735000
31.963784	2.367246	59.782000
31.989491	2.365034	59.828000
32.014785	2.364173	59.875000
32.039764	2.361606	59.921000
32.064635	2.360610	59.968000
32.089201	2.361737	60.014000
32.114664	2.358774	60.061000
32.139793	2.358258	60.107000
32.164941	2.354039	60.153000
32.190413	2.350931	60.199000
32.273761	2.348118	60.246000
32.359486	2.320684	60.400000
32.384019	2.316134	60.559000
32.409301	2.311509	60.605000
32.434426	2.307861	60.652000
32.459528	2.304813	60.698000
32.484538	2.302571	60.743000
32.509912	2.301305	60.789000
32.535122	2.296501	60.836000
32.560166	2.292842	60.882000
32.584888	2.289224	60.929000
32.610139	2.285906	60.974000
32.634431	2.284144	61.022000
32.660197	2.280751	61.068000
32.685476	2.278599	61.114000
32.711208	2.275235	61.161000
32.736063	2.269746	61.208000
32.761331	2.267989	61.254000
32.786286	2.263093	61.299000
32.868549	2.260186	61.345000
33.069775	2.231850	61.500000
33.094370	2.229808	61.871000
33.119698	2.231185	61.916000
33.144697	2.233016	61.962000
33.169845	2.232351	62.008000
33.195430	2.234353	62.055000
33.220071	2.235038	62.101000
33.245788	2.236654	62.147000
33.270310	2.237770	62.193000
33.294900	2.237991	62.240000
33.319933	2.241319	62.287000
33.344351	2.243200	62.333000
33.369995	2.243591	62.379000
33.577175	2.246969	62.425000
33.602381	2.268199	62.807000
33.627828	2.273879	62.853000
33.652665	2.281091	62.899000
33.677356	2.287202	62.946000
33.702366	2.295474	62.991000
33.727663	2.301535	63.039000
33.752316	2.308832	63.085000
33.777721	2.314142	63.132000
33.802539	2.320253	63.177000
33.828236	2.325832	63.223000
33.853384	2.331207	63.270000
33.878194	2.337028	63.316000
33.903419	2.342368	63.362000
33.927606	2.349214	63.408000
33.952735	2.357417	63.455000
33.978086	2.364038	63.501000
34.061921	2.372816	63.548000
34.146773	2.425680	63.702000
34.172501	2.433397	63.859000
34.197019	2.441437	63.905000
34.221979	2.447128	63.952000
34.246769	2.455369	63.998000
34.271810	2.463234	64.044000
34.297626	2.470250	64.091000
34.322766	2.478651	64.137000
34.348337	2.484467	64.184000
34.373646	2.493043	64.231000
34.398733	2.498121	64.277000
34.423992	2.504491	64.324000
34.449321	2.509604	64.370000
34.474054	2.512002	64.416000
34.498399	2.514242	64.463000
34.523566	2.514532	64.509000
34.549255	2.517118	64.555000
34.574300	2.519049	64.602000
34.658883	2.520253	64.648000
34.741688	2.536374	64.804000
34.767193	2.539976	64.959000
34.792022	2.544734	65.004000
34.817193	2.551195	65.051000
34.843071	2.556578	65.098000
34.868165	2.562857	65.144000
34.893155	2.567695	65.190000
34.918203	2.573369	65.237000
34.943301	2.580523	65.282000
34.968196	2.585556	65.329000
34.993298	2.591758	65.376000
35.017873	2.593736	65.422000
35.042864	2.597591	65.468000
35.068580	2.601780	65.514000
35.093544	2.603091	65.561000
35.119445	2.608877	65.607000
35.143913	2.613180	65.654000
35.169460	2.621293	65.699000
35.251892	2.628499	65.745000
35.337321	2.663232	65.900000
35.363083	2.669733	66.059000
35.388366	2.678561	66.105000
35.413590	2.687054	66.151000
35.438715	2.695037	66.198000
35.464347	2.701387	66.244000
35.488627	2.710331	66.290000
35.513629	2.717647	66.337000
35.538500	2.725760	66.382000
35.563552	2.735239	66.429000
35.588693	2.742021	66.475000
35.613522	2.751189	66.521000
35.639277	2.758396	66.567000
35.664551	2.767564	66.614000
35.689365	2.776423	66.660000
35.714263	2.782503	66.706000
35.738385	2.790515	66.752000
35.763195	2.799439	66.798000
35.847172	2.810861	66.845000
36.048532	2.914769	66.998000
36.073811	2.923993	67.371000
36.099143	2.932174	67.417000
36.124433	2.940695	67.463000
36.149147	2.947621	67.509000
36.174594	2.955891	67.555000
36.199193	2.962557	67.602000
36.223938	2.969232	67.648000
36.249066	2.976409	67.695000
36.273799	2.982451	67.740000
36.299308	2.989236	67.787000
36.323880	2.994214	67.833000
36.349554	3.000939	67.878000
36.556259	3.005607	67.926000
36.581115	3.035683	68.306000
36.605698	3.039342	68.353000
36.630116	3.042680	68.399000
36.655183	3.046773	68.445000
36.680419	3.052199	68.491000
36.706036	3.054201	68.538000
36.731096	3.059075	68.584000
36.756609	3.061578	68.630000
36.781580	3.065661	68.677000
36.806820	3.069390	68.722000
36.831257	3.073308	68.769000
36.855656	3.079289	68.816000
36.880865	3.082136	68.862000
36.906148	3.085935	68.908000
36.931822	3.090680	68.955000
36.956701	3.093472	69.001000
37.040239	3.097786	69.047000
37.125003	3.119298	69.201000
37.150113	3.121990	69.359000
37.175545	3.126910	69.405000
37.200774	3.130463	69.452000
37.225856	3.134712	69.498000
37.251016	3.134972	69.543000
37.276318	3.136954	69.591000
37.301592	3.138551	69.636000
37.326694	3.141004	69.682000
37.350117	3.143550	69.728000
37.375469	3.147409	69.775000
37.401097	3.148615	69.821000
37.425853	3.151268	69.867000
37.450801	3.151468	69.913000
37.476314	3.154716	69.960000
37.500886	3.157984	70.006000
37.527655	3.161492	70.052000
37.552968	3.166807	70.099000
37.635550	3.170570	70.145000
37.721827	3.187434	70.300000
37.746656	3.191343	70.459000
37.772492	3.197233	70.505000
37.797567	3.201848	70.552000
37.823107	3.206202	70.598000
37.848059	3.213369	70.644000
37.873418	3.219199	70.691000
37.897191	3.226225	70.736000
37.921486	3.232527	70.782000
37.947425	3.238278	70.829000
37.972496	3.244722	70.875000
37.997629	3.248458	70.921000
38.022854	3.254611	70.967000
38.048866	3.261012	71.014000
38.073123	3.266643	71.060000
38.098593	3.272416	71.107000
38.123995	3.276258	71.154000
38.147491	3.280256	71.200000
38.232078	3.285907	71.246000
38.317311	3.303338	71.400000
38.343465	3.303488	71.559000
38.368344	3.302223	71.605000
38.393469	3.300380	71.651000
38.417806	3.300800	71.697000
38.442916	3.297666	71.744000
38.467660	3.296063	71.790000
38.492294	3.290231	71.836000
38.518118	3.286248	71.882000
38.543277	3.283719	71.928000
38.568479	3.279921	71.975000
38.593492	3.278627	72.020000
38.618310	3.275569	72.067000
38.643035	3.272536	72.113000
38.667918	3.268893	72.160000
38.693251	3.266474	72.206000
38.717964	3.264849	72.253000
38.743066	3.261566	72.299000
38.828207	3.258164	72.344000
39.028061	3.196975	72.500000
39.053217	3.193907	72.870000
39.078741	3.191004	72.916000
39.103317	3.188231	72.963000
39.128591	3.186400	73.010000
39.153374	3.185719	73.056000
39.178004	3.183678	73.102000
39.203374	3.182702	73.148000
39.229348	3.183032	73.195000
39.253613	3.182502	73.242000
39.279494	3.184498	73.288000
39.305003	3.184098	73.334000
39.330597	3.186040	73.380000
39.534927	3.186751	73.427000
39.559921	3.171049	73.807000
39.585430	3.170739	73.853000
39.609906	3.168977	73.900000
39.635964	3.167691	73.946000
39.661036	3.167941	73.992000
39.686176	3.167191	74.039000
39.711374	3.169582	74.085000
39.736848	3.170073	74.132000
39.761708	3.170809	74.178000
39.785796	3.172920	74.225000
39.811420	3.174628	74.271000
39.836818	3.177906	74.318000
39.861339	3.177475	74.363000
39.886507	3.179092	74.410000
39.911908	3.180678	74.456000
39.937563	3.183406	74.503000
40.021190	3.185302	74.549000
40.104432	3.198736	74.703000
40.130130	3.201179	74.859000
40.155685	3.204997	74.904000
40.180211	3.205753	74.951000
40.205647	3.208656	74.998000
40.230891	3.209201	75.044000
40.253745	3.212655	75.089000
40.279154	3.215752	75.135000
40.303680	3.217079	75.181000
40.328382	3.218860	75.225000
40.353434	3.218780	75.272000
40.379312	3.219816	75.319000
40.404567	3.222528	75.365000
40.428417	3.223305	75.411000
40.454199	3.226467	75.457000
40.479351	3.227313	75.503000
40.504153	3.229685	75.551000
40.530092	3.232738	75.597000
40.613381	3.234937	75.643000
40.700838	3.261248	75.797000
40.726105	3.264406	75.959000
40.751091	3.271402	76.005000
40.775774	3.277669	76.051000
40.801395	3.281663	76.097000
40.825183	3.287664	76.143000
40.850727	3.292680	76.190000
40.876343	3.298063	76.237000
40.900258	3.303131	76.283000
40.926117	3.308056	76.329000
40.951714	3.316099	76.375000
40.976678	3.324578	76.421000
41.001076	3.332159	76.467000
41.025679	3.342358	76.513000
41.050665	3.350633	76.560000
41.075537	3.360986	76.606000
41.100992	3.367765	76.652000
41.126497	3.378093	76.698000
41.210408	3.386164	76.745000
41.296901	3.451331	76.900000
41.320816	3.463368	77.058000
41.345910	3.473077	77.104000
41.370290	3.483943	77.151000
41.396056	3.494327	77.197000
41.421223	3.502899	77.244000
41.446713	3.514680	77.290000
41.471727	3.521978	77.336000
41.496986	3.530280	77.382000
41.522226	3.538623	77.429000
41.546859	3.546946	77.475000
41.571585	3.556970	77.521000
41.596878	3.564402	77.568000
41.621623	3.572365	77.614000
41.646375	3.580026	77.660000
41.672549	3.584426	77.706000
41.697563	3.589726	77.753000
41.722142	3.592983	77.799000
41.806560	3.597433	77.845000
42.006606	3.643410	78.000000
42.032354	3.647423	78.371000
42.057675	3.651522	78.417000
42.081747	3.658248	78.464000
42.106710	3.660939	78.510000
42.132315	3.665977	78.556000
42.157575	3.668556	78.602000
42.182619	3.674119	78.649000
42.208512	3.677825	78.696000
42.233288	3.678960	78.741000
42.258155	3.683134	78.789000
42.282800	3.683698	78.834000
42.307341	3.685860	78.880000
42.513311	3.688139	78.926000
42.538624	3.717993	79.306000
42.564168	3.725029	79.352000
42.589155	3.731650	79.399000
42.614187	3.737763	79.445000
42.639289	3.744819	79.491000
42.663999	3.751794	79.538000
42.688141	3.759955	79.584000
42.713354	3.767701	79.630000
42.738621	3.774637	79.676000
42.763869	3.782877	79.723000
42.789105	3.789783	79.769000
42.814361	3.797548	79.816000
42.839770	3.802531	79.862000
42.864837	3.808963	79.908000
42.889366	3.814754	79.954000
42.915133	3.819051	80.001000
42.998468	3.824199	80.047000
43.083431	3.844063	80.202000
43.108883	3.846841	80.358000
43.133827	3.851250	80.404000
43.158422	3.851718	80.451000
43.182924	3.854682	80.498000
43.208453	3.857644	80.544000
43.233843	3.860963	80.590000
43.258649	3.863382	80.637000
43.284461	3.861728	80.683000
43.309559	3.863203	80.730000
43.334185	3.863402	80.776000
43.359041	3.863786	80.822000
43.385253	3.866035	80.868000
43.409045	3.864566	80.914000
43.433709	3.863996	80.961000
43.459298	3.863886	81.007000
43.484604	3.864761	81.054000
43.509621	3.865975	81.099000
43.594327	3.865332	81.147000
43.679141	3.877659	81.301000
43.704320	3.879324	81.458000
43.728461	3.882058	81.505000
43.753467	3.887208	81.551000
43.778888	3.891537	81.597000
43.804389	3.896061	81.643000
43.829376	3.903458	81.690000
43.855331	3.908467	81.736000
43.879944	3.917706	81.782000
43.904501	3.924077	81.828000
43.929145	3.932790	81.874000
43.954163	3.940182	81.921000
43.978761	3.946652	81.966000
44.003222	3.953990	82.013000
44.029453	3.959590	82.059000
44.054693	3.966186	82.105000
44.079476	3.975300	82.151000
44.104920	3.979544	82.198000
44.187117	3.986985	82.244000
44.274321	4.015372	82.399000
44.298708	4.019096	82.558000
44.324375	4.024955	82.605000
44.349761	4.029334	82.651000
44.374951	4.034294	82.697000
44.400257	4.036372	82.744000
44.425643	4.039219	82.790000
44.451021	4.043158	82.837000
44.474413	4.044293	82.883000
44.499957	4.048322	82.929000
44.524909	4.050415	82.975000
44.549930	4.054648	83.021000
44.574640	4.057391	83.068000
44.600583	4.057836	83.114000
44.625543	4.060468	83.160000
44.650726	4.061985	83.206000
44.676796	4.062661	83.253000
44.700664	4.063646	83.299000
44.784199	4.063521	83.345000
44.984572	4.040119	83.500000
45.009439	4.040985	83.871000
45.036047	4.039018	83.918000
45.061345	4.035860	83.964000
45.086055	4.033248	84.009000
45.111353	4.029700	84.056000
45.137711	4.028178	84.102000
45.162436	4.022833	84.148000
45.186935	4.020170	84.195000
45.212156	4.016367	84.242000
45.237561	4.012869	84.288000
45.262371	4.011433	84.335000
45.287565	4.008890	84.382000
45.493774	4.008670	84.428000
45.518345	4.013274	84.807000
45.544004	4.015426	84.854000
45.569390	4.018909	84.899000
45.593928	4.021667	84.947000
45.618388	4.025175	84.993000
45.643716	4.029384	85.039000
45.669214	4.031576	85.085000
45.694454	4.037196	85.132000
45.719629	4.042707	85.179000
45.744996	4.049953	85.225000
45.770159	4.059753	85.271000
45.795342	4.066228	85.318000
45.820870	4.076127	85.364000
45.845718	4.083725	85.411000
45.870282	4.092403	85.457000
45.895534	4.100233	85.504000
45.979145	4.107167	85.550000
46.063222	4.146435	85.705000
46.087056	4.152457	85.858000
46.111935	4.157425	85.904000
46.136745	4.166539	85.950000
46.161789	4.172731	85.996000
46.187363	4.180325	86.043000
46.212818	4.187727	86.089000
46.238185	4.193078	86.135000
46.263087	4.201258	86.181000
46.288051	4.207211	86.227000
46.313802	4.214267	86.274000
46.337517	4.222557	86.321000
46.363153	4.228369	86.368000
46.388132	4.234826	86.414000
46.413284	4.238328	86.460000
46.438359	4.242845	86.506000
46.463983	4.246939	86.551000
46.489446	4.248667	86.598000
46.571386	4.252791	86.645000
46.657829	4.280235	86.799000
46.683638	4.286156	86.959000
46.708547	4.293292	87.004000
46.733542	4.296675	87.050000
46.757967	4.301603	87.097000
46.783830	4.300819	87.142000
46.808863	4.301943	87.189000
46.832973	4.302897	87.235000
46.858275	4.302302	87.281000
46.883415	4.305416	87.328000
46.908359	4.305980	87.374000
46.934026	4.305959	87.421000
46.959466	4.306250	87.467000
46.983926	4.305565	87.514000
47.009504	4.305735	87.560000
47.035367	4.305357	87.607000
47.060523	4.305256	87.653000
47.084795	4.305476	87.699000
47.168510	4.306090	87.746000
47.254430	4.320105	87.900000
47.279532	4.323088	88.058000
47.304299	4.326426	88.104000
47.329267	4.329450	88.150000
47.354369	4.331580	88.196000
47.378833	4.333783	88.242000
47.403189	4.337071	88.288000
47.429417	4.337461	88.335000
47.454480	4.339102	88.381000
47.479574	4.340689	88.428000
47.504888	4.342982	88.475000
47.530473	4.343928	88.521000
47.555122	4.345394	88.568000
47.580193	4.348391	88.614000
47.605806	4.351424	88.660000
47.629575	4.354813	88.706000
47.654415	4.358060	88.752000
47.680286	4.363505	88.799000
47.764104	4.369426	88.845000
47.965038	4.408562	89.000000
47.990052	4.413301	89.371000
48.015215	4.417821	89.417000
48.041220	4.422104	89.464000
48.066030	4.428276	89.510000
48.089925	4.433250	89.556000
48.114927	4.437524	89.602000
48.140494	4.444141	89.649000
48.165196	4.449991	89.695000
48.190667	4.454685	89.741000
48.215527	4.460326	89.787000
48.240813	4.463098	89.833000
48.265730	4.465930	89.880000
48.472012	4.466366	89.926000
48.497448	4.422991	90.306000
48.521370	4.414989	90.353000
48.546561	4.404829	90.399000
48.572154	4.396236	90.446000
48.597141	4.387993	90.492000
48.622611	4.380506	90.539000
48.648144	4.373144	90.585000
48.673303	4.364752	90.631000
48.697879	4.358470	90.677000
48.723449	4.349937	90.724000
48.748370	4.340158	90.771000
48.772201	4.332927	90.817000
48.797521	4.324909	90.863000
48.823349	4.319960	90.910000
48.848367	4.313809	90.956000
48.873265	4.307125	91.002000
48.957960	4.301393	91.048000
49.041160	4.266152	91.204000
49.066688	4.259056	91.359000
49.091298	4.252611	91.405000
49.116589	4.244760	91.450000
49.141571	4.238259	91.497000
49.166193	4.232026	91.543000
49.191602	4.224786	91.589000
49.216585	4.217669	91.635000
49.240795	4.211179	91.681000
49.265674	4.204643	91.727000
49.291280	4.198800	91.774000
49.316339	4.194153	91.820000
49.341376	4.189996	91.866000
49.366731	4.182595	91.912000
49.392248	4.178812	91.958000
49.416136	4.175984	92.005000
49.440957	4.172481	92.050000
49.465817	4.169018	92.096000
49.550143	4.164830	92.143000
49.637239	4.132363	92.298000
49.662252	4.125846	92.459000
49.687877	4.119885	92.504000
49.713524	4.112778	92.551000
49.737001	4.107652	92.597000
49.761872	4.104039	92.643000
49.787005	4.101287	92.690000
49.811419	4.099742	92.736000
49.837251	4.099328	92.781000
49.863032	4.100665	92.828000
49.888353	4.102261	92.875000
49.912956	4.103435	92.922000
49.938507	4.105724	92.967000
49.963889	4.110985	93.014000
49.987965	4.115642	93.060000
50.013329	4.120999	93.107000
50.038300	4.126682	93.153000
50.062691	4.133012	93.199000
50.147393	4.139888	93.245000
50.233218	4.181102	93.399000
50.258984	4.188206	93.559000
50.283951	4.194718	93.606000
50.308731	4.202294	93.652000
50.333448	4.210824	93.698000
50.358569	4.215311	93.745000
50.383168	4.218726	93.790000
50.408139	4.220443	93.837000
50.434117	4.221778	93.883000
50.458546	4.223592	93.928000
50.483967	4.223816	93.975000
50.509326	4.224046	94.021000
50.533318	4.223826	94.067000
50.557990	4.224247	94.114000
50.583483	4.224796	94.160000
50.608566	4.224237	94.206000
50.633625	4.222892	94.253000
50.659081	4.223443	94.298000
50.743107	4.224006	94.345000
50.944006	4.237395	94.500000
50.969492	4.239293	94.870000
50.994529	4.239193	94.917000
51.019024	4.241621	94.963000
51.043914	4.245064	95.010000
51.068924	4.247804	95.057000
51.093695	4.250002	95.103000
51.119616	4.251577	95.149000
51.144656	4.253245	95.195000
51.169685	4.255318	95.242000
51.195743	4.257308	95.289000
51.221022	4.259001	95.335000
51.246005	4.260421	95.381000
51.449858	4.262415	95.428000
51.475917	4.270005	95.807000
51.500688	4.271140	95.853000
51.525141	4.272144	95.899000
51.550250	4.274643	95.945000
51.575890	4.275153	95.991000
51.600431	4.273268	96.037000
51.625072	4.271200	96.082000
51.650024	4.269975	96.129000
51.674319	4.266953	96.176000
51.699332	4.264164	96.222000
51.725241	4.261805	96.267000
51.750923	4.259486	96.314000
51.775767	4.259106	96.361000
51.800881	4.258881	96.407000
51.826505	4.258871	96.453000
51.850919	4.259146	96.500000
51.934903	4.261150	96.546000
52.019686	4.269062	96.701000
52.045326	4.269895	96.859000
52.071350	4.272664	96.905000
52.095899	4.274118	96.952000
52.121054	4.274802	96.998000
52.146602	4.276147	97.044000
52.169452	4.278506	97.090000
52.195422	4.280504	97.136000
52.220055	4.280993	97.182000
52.245196	4.282443	97.228000
52.269829	4.285052	97.274000
52.296368	4.285861	97.321000
52.321293	4.288945	97.366000
52.345772	4.292598	97.413000
52.370440	4.296765	97.460000
52.395357	4.299833	97.506000
52.420071	4.298380	97.552000
52.445588	4.297235	97.597000
52.529849	4.296585	97.644000
52.616948	4.298538	97.799000
52.641689	4.301442	97.958000
52.666495	4.304231	98.005000
52.691647	4.307928	98.052000
52.716649	4.308804	98.098000
52.741474	4.311971	98.144000
52.767317	4.315399	98.190000
52.792031	4.320224	98.237000
52.816526	4.326305	98.282000
52.842446	4.333422	98.329000
52.868151	4.338366	98.375000
52.892942	4.343170	98.422000
52.916834	4.348841	98.468000
52.942577	4.352620	98.514000
52.967564	4.356743	98.561000
52.992373	4.360932	98.608000
53.018182	4.367072	98.654000
53.043088	4.374129	98.701000
53.127502	4.380345	98.746000
53.212017	4.415108	98.901000
53.237026	4.421914	99.059000
53.262520	4.429351	99.106000
53.287076	4.436317	99.152000
53.312339	4.443880	99.198000
53.338117	4.453188	99.244000
53.363838	4.459729	99.291000
53.387883	4.467702	99.337000
53.413227	4.475855	99.383000
53.438890	4.482386	99.430000
53.463104	4.489968	99.476000
53.487645	4.496308	99.523000
53.513166	4.503475	99.568000
53.538702	4.508269	99.615000
53.563273	4.515085	99.662000
53.589190	4.520342	99.708000
53.614687	4.526466	99.755000
53.639624	4.531975	99.801000
53.723116	4.536203	99.848000
53.922563	4.601561	100.002000
53.948195	4.607005	100.371000
53.972686	4.613064	100.417000
53.997316	4.620551	100.463000
54.022341	4.625779	100.510000
54.048522	4.632594	100.555000
54.073486	4.640705	100.602000
54.098384	4.647661	100.649000
54.123993	4.654847	100.695000
54.148100	4.661488	100.740000
54.172921	4.669599	100.787000
54.198065	4.676664	100.833000
54.223083	4.683522	100.880000
54.429833	4.691522	100.926000
54.454512	4.749954	101.307000
54.480106	4.756256	101.353000
54.504812	4.762106	101.398000
54.529618	4.767856	101.445000
54.554309	4.775243	101.491000
54.579387	4.780713	101.537000
54.603825	4.785668	101.583000
54.629238	4.790907	101.630000
54.654866	4.796053	101.676000
54.679476	4.800917	101.721000
54.704739	4.806297	101.768000
54.730928	4.811572	101.815000
54.756038	4.818748	101.861000
54.780191	4.824749	101.908000
54.805108	4.830730	101.954000
54.830333	4.837226	102.000000
54.913698	4.842195	102.047000
54.999369	4.862669	102.201000
55.024298	4.863806	102.358000
55.049573	4.864401	102.404000
55.074037	4.866724	102.451000
55.098897	4.868060	102.497000
55.124348	4.871708	102.544000
55.149738	4.874410	102.590000
55.174498	4.877919	102.636000
55.199519	4.879950	102.682000
55.225601	4.881602	102.728000
55.250023	4.883109	102.775000
55.274802	4.885650	102.821000
55.300480	4.888363	102.868000
55.324687	4.891441	102.914000
55.349527	4.895320	102.960000
55.374737	4.900679	103.006000
55.400322	4.904718	103.052000
55.425474	4.908096	103.099000
55.509566	4.910719	103.145000
55.594752	4.937198	103.300000
55.620246	4.939295	103.459000
55.644745	4.941197	103.505000
55.669777	4.941307	103.552000
55.695794	4.941467	103.598000
55.721525	4.942282	103.644000
55.745894	4.942802	103.691000
55.771825	4.944720	103.738000
55.796804	4.945271	103.784000
55.821134	4.946533	103.829000
55.845863	4.948333	103.876000
55.871142	4.950932	103.922000
55.895537	4.953042	103.969000
55.920934	4.954537	104.015000
55.946870	4.956655	104.061000
55.971906	4.958569	104.108000
55.997435	4.962247	104.154000
56.022271	4.965950	104.201000
56.105253	4.969423	104.247000
56.190720	4.989686	104.403000
56.215422	4.993925	104.559000
56.240747	4.998893	104.605000
56.266263	5.004284	104.652000
56.291961	5.009322	104.698000
56.316467	5.013035	104.744000
56.342491	5.016378	104.790000
56.366482	5.019235	104.837000
56.390566	5.021859	104.883000
56.416121	5.024618	104.930000
56.441500	5.028995	104.975000
56.466698	5.028469	105.022000
56.491354	5.029195	105.068000
56.517362	5.030938	105.114000
56.542253	5.030219	105.161000
56.566517	5.030139	105.207000
56.592080	5.029065	105.253000
56.616387	5.027285	105.298000
56.700928	5.026361	105.344000
56.900344	5.030449	105.500000
56.926080	5.032092	105.871000
56.951635	5.033326	105.917000
56.976906	5.034501	105.963000
57.001877	5.036231	106.010000
57.027171	5.035585	106.057000
57.052995	5.035096	106.103000
57.077333	5.034262	106.149000
57.101570	5.032818	106.195000
57.126787	5.031403	106.241000
57.151689	5.029124	106.287000
57.176054	5.027414	106.333000
57.201732	5.026102	106.378000
57.408732	5.023763	106.425000
57.433592	5.048307	106.807000
57.458924	5.048991	106.853000
57.484245	5.049861	106.900000
57.508098	5.051981	106.946000
57.533073	5.054699	106.993000
57.559059	5.057462	107.038000
57.584368	5.059386	107.085000
57.608767	5.061356	107.130000
57.633603	5.063053	107.177000
57.658559	5.064809	107.222000
57.682743	5.066827	107.267000
57.707514	5.068131	107.314000
57.732451	5.067546	107.360000
57.757246	5.070560	107.406000
57.782689	5.070819	107.453000
57.808713	5.072359	107.499000
57.891637	5.074667	107.545000
57.977922	5.087102	107.700000
58.002252	5.087615	107.858000
58.027242	5.087766	107.904000
58.053082	5.088316	107.951000
58.077669	5.089080	107.997000
58.103178	5.088780	108.043000
58.128756	5.088086	108.090000
58.153716	5.088980	108.136000
58.178153	5.090334	108.182000
58.203220	5.091044	108.229000
58.228326	5.090505	108.275000
58.252563	5.091238	108.320000
58.278541	5.092764	108.367000
58.303658	5.093013	108.414000
58.328407	5.091930	108.460000
58.354035	5.091289	108.506000
58.379517	5.094278	108.553000
58.405165	5.094702	108.599000
58.487789	5.094732	108.646000
58.573617	5.102668	108.801000
58.599007	5.102048	108.959000
58.624473	5.102479	109.006000
58.649256	5.104507	109.051000
58.674335	5.104537	109.098000
58.700090	5.107950	109.145000
58.725108	5.111062	109.190000
58.750083	5.116501	109.238000
58.774793	5.119803	109.284000
58.799572	5.122762	109.330000
58.824516	5.127120	109.376000
58.850363	5.131256	109.422000
58.875876	5.134829	109.469000
58.900171	5.137148	109.515000
58.925642	5.139102	109.562000
58.951520	5.144385	109.608000
58.976487	5.148822	109.655000
59.000759	5.155254	109.701000
59.084728	5.162040	109.747000
59.169407	5.197055	109.902000
59.194782	5.202450	110.058000
59.219480	5.208490	110.105000
59.245035	5.216093	110.151000
59.270618	5.223670	110.198000
59.294425	5.230296	110.245000
59.319066	5.237472	110.290000
59.344993	5.245304	110.337000
59.369945	5.252266	110.383000
59.395232	5.261165	110.430000
59.420741	5.267945	110.476000
59.446054	5.275122	110.522000
59.470641	5.283445	110.569000
59.495647	5.289145	110.614000
59.520760	5.295942	110.661000
59.545078	5.302402	110.707000
59.570280	5.307943	110.753000
59.595758	5.312272	110.800000
59.679773	5.315500	110.847000
59.880242	5.326810	111.001000
59.905605	5.326215	111.371000
59.930592	5.324779	111.418000
59.956335	5.322367	111.464000
59.980400	5.320174	111.509000
60.004115	5.317632	111.555000
60.030319	5.314074	111.602000
60.055640	5.310155	111.649000
60.079716	5.308333	111.696000
60.105586	5.304744	111.742000
60.131491	5.302292	111.789000
60.157069	5.298885	111.836000
60.181391	5.294705	111.882000
60.386248	5.290872	111.928000
60.410904	5.241201	112.306000
60.435476	5.234445	112.352000
60.460858	5.229479	112.398000
60.486532	5.222513	112.444000
60.511515	5.217909	112.491000
60.536359	5.210473	112.537000
60.561895	5.203355	112.583000
60.586237	5.199627	112.630000
60.610562	5.192730	112.677000
60.636329	5.187101	112.723000
60.661415	5.183998	112.769000
60.686901	5.180439	112.815000
60.712084	5.178367	112.862000
60.738254	5.175995	112.909000
60.763236	5.175875	112.955000
60.788100	5.172767	113.001000
60.871892	5.172367	113.048000
60.955807	5.166556	113.203000
60.981335	5.164985	113.359000
61.006157	5.162807	113.405000
61.032184	5.159670	113.452000
61.057232	5.157180	113.498000
61.081939	5.156187	113.544000
61.107229	5.155133	113.591000
61.132177	5.153908	113.637000
61.156491	5.153758	113.683000
61.181243	5.152303	113.729000
61.207252	5.153328	113.776000
61.232346	5.153033	113.823000
61.257094	5.151038	113.869000
61.282507	5.149734	113.915000
61.307974	5.149060	113.961000
61.332465	5.148970	114.007000
61.357275	5.148086	114.054000
61.382738	5.146352	114.100000
61.466215	5.146211	114.146000
61.552131	5.127089	114.301000
61.576991	5.122531	114.459000
61.602397	5.121366	114.505000
61.627740	5.118938	114.552000
61.651717	5.116698	114.598000
61.677226	5.116050	114.644000
61.702477	5.116590	114.691000
61.726930	5.118418	114.737000
61.752017	5.119622	114.783000
61.777161	5.121781	114.828000
61.802078	5.125685	114.874000
61.826369	5.131716	114.919000
61.851237	5.136263	114.965000
61.875513	5.140580	115.011000
61.900165	5.146481	115.057000
61.926154	5.150345	115.102000
61.951080	5.153082	115.149000
61.976189	5.158025	115.196000
62.060169	5.162462	115.242000
62.148022	5.189132	115.397000
62.173596	5.194398	115.559000
62.197726	5.199687	115.605000
62.222459	5.203776	115.652000
62.247665	5.207879	115.698000
62.272963	5.211188	115.744000
62.297327	5.215771	115.790000
62.323362	5.218384	115.836000
62.348756	5.223600	115.882000
62.373850	5.227723	115.929000
62.398579	5.230727	115.976000
62.423846	5.233925	116.021000
62.448038	5.238418	116.068000
62.472352	5.242357	116.114000
62.498203	5.248568	116.160000
62.523639	5.255554	116.206000
62.548557	5.260439	116.253000
62.573770	5.265268	116.299000
62.657239	5.268902	116.346000
62.858592	5.332780	116.499000
62.884335	5.338105	116.871000
62.908527	5.345196	116.918000
62.933018	5.352473	116.964000
62.958584	5.359290	117.010000
62.984097	5.366562	117.056000
63.008684	5.374164	117.103000
63.034059	5.382507	117.149000
63.059595	5.392351	117.194000
63.084670	5.401850	117.242000
63.109560	5.412909	117.288000
63.134266	5.422994	117.334000
63.158408	5.435901	117.380000
63.364540	5.448618	117.426000
63.390233	5.538810	117.807000
63.415231	5.548878	117.853000
63.440452	5.559808	117.899000
63.464928	5.573659	117.945000
63.491071	5.585112	117.992000
63.515900	5.596636	118.038000
63.540183	5.606265	118.085000
63.565278	5.615303	118.131000
63.590153	5.624492	118.176000
63.615746	5.633205	118.224000
63.641444	5.641158	118.270000
63.666588	5.649921	118.315000
63.691129	5.657823	118.362000
63.716388	5.665946	118.408000
63.741678	5.674448	118.455000
63.765766	5.682311	118.501000
63.850226	5.691839	118.548000
63.934902	5.728434	118.702000
63.960580	5.734134	118.859000
63.985820	5.740685	118.905000
64.009689	5.746195	118.951000
64.034744	5.753636	118.998000
64.059481	5.759818	119.044000
64.084629	5.765638	119.089000
64.110430	5.769746	119.136000
64.135125	5.771659	119.182000
64.160657	5.774906	119.228000
64.185851	5.779841	119.275000
64.211925	5.786232	119.322000
64.236650	5.792737	119.368000
64.260845	5.800528	119.415000
64.286043	5.809665	119.461000
64.311053	5.815013	119.507000
64.335402	5.823456	119.553000
64.361775	5.830422	119.599000
64.445149	5.839262	119.646000
64.531311	5.878018	119.801000
64.556036	5.882084	119.959000
64.580362	5.886921	120.006000
64.605057	5.891313	120.051000
64.630627	5.894528	120.097000
64.655276	5.899559	120.144000
64.681146	5.904942	120.190000
64.705933	5.909238	120.236000
64.731242	5.914944	120.282000
64.756467	5.921162	120.328000
64.781523	5.926688	120.375000
64.805871	5.933406	120.421000
64.830482	5.938566	120.468000
64.856375	5.944939	120.514000
64.881538	5.949456	120.560000
64.906340	5.955237	120.606000
64.931742	5.960016	120.653000
64.957151	5.963648	120.699000
65.039794	5.968626	120.745000
65.125496	5.986695	120.900000
65.151081	5.990588	121.059000
65.176452	5.992636	121.104000
65.201754	5.996059	121.152000
65.226863	5.999723	121.198000
65.252311	6.003505	121.244000
65.277720	6.006709	121.290000
65.301839	6.010551	121.337000
65.327278	6.011876	121.382000
65.352373	6.015050	121.429000
65.376499	6.018193	121.476000
65.401685	6.022778	121.522000
65.427348	6.025415	121.567000
65.452281	6.029233	121.614000
65.476799	6.032206	121.659000
65.502377	6.033697	121.705000
65.526818	6.035483	121.751000
65.551098	6.035794	121.798000
65.635370	6.035274	121.844000
65.836038	6.019504	121.999000
65.861594	6.015953	122.370000
65.886711	6.012569	122.417000
65.911697	6.011060	122.463000
65.936838	6.011131	122.508000
65.962124	6.010621	122.555000
65.986680	6.010771	122.600000
66.010591	6.009677	122.647000
66.035924	6.007962	122.693000
66.060587	6.005934	122.739000
66.086289	6.006313	122.785000
66.111898	6.005050	122.832000
66.137499	6.007389	122.878000
66.343769	6.008553	122.924000
66.369255	6.025070	123.307000
66.394902	6.030600	123.354000
66.418998	6.033797	123.399000
66.443101	6.033948	123.445000
66.468456	6.034308	123.491000
66.493835	6.034268	123.537000
66.518629	6.034638	123.584000
66.544077	6.034348	123.630000
66.569778	6.032671	123.676000
66.594104	6.031385	123.723000
66.619912	6.030969	123.769000
66.644622	6.030539	123.815000
66.668649	6.028912	123.861000
66.694104	6.028537	123.908000
66.719298	6.030014	123.954000
66.744630	6.030278	124.000000
66.828564	6.030610	124.047000
66.913889	6.030023	124.202000
66.938161	6.031305	124.358000
66.963478	6.033607	124.404000
66.988004	6.037071	124.451000
67.013244	6.042411	124.498000
67.039191	6.049237	124.544000
67.064347	6.055478	124.589000
67.088895	6.062695	124.636000
67.114035	6.067609	124.682000
67.139783	6.073170	124.728000
67.163325	6.078284	124.775000
67.188995	6.084094	124.821000
67.214197	6.088558	124.868000
67.238999	6.093858	124.914000
67.263986	6.097151	124.961000
67.290033	6.099233	125.007000
67.315626	6.102611	125.054000
67.340075	6.106630	125.100000
67.424324	6.110424	125.146000
67.508642	6.129277	125.301000
67.533944	6.132724	125.458000
67.559868	6.136242	125.505000
67.584885	6.140977	125.552000
67.610525	6.145811	125.598000
67.635658	6.149580	125.644000
67.660567	6.154504	125.691000
67.686315	6.157117	125.737000
67.710264	6.159975	125.783000
67.734413	6.162118	125.829000
67.760045	6.163713	125.875000
67.785585	6.165170	125.921000
67.810118	6.166656	125.967000
67.835427	6.169913	126.013000
67.860721	6.172567	126.059000
67.885992	6.175704	126.106000
67.910456	6.180178	126.152000
67.935028	6.182045	126.198000
68.018954	6.184502	126.244000
68.105632	6.194331	126.399000
68.130795	6.196794	126.559000
68.155712	6.200292	126.605000
68.181267	6.203700	126.651000
68.206746	6.205672	126.697000
68.230795	6.207138	126.744000
68.256527	6.208915	126.790000
68.280737	6.211442	126.836000
68.305593	6.212333	126.882000
68.331479	6.215040	126.929000
68.356412	6.215390	126.975000
68.381275	6.215481	127.021000
68.406347	6.217248	127.068000
68.432570	6.215931	127.114000
68.457395	6.215121	127.161000
68.482105	6.213089	127.207000
68.506716	6.212504	127.254000
68.532171	6.212689	127.300000
68.616428	6.212889	127.347000
68.815621	6.232072	127.502000
68.841084	6.233113	127.871000
68.866470	6.233197	127.917000
68.891979	6.235223	127.963000
68.916282	6.235343	128.009000
68.941615	6.238375	128.056000
68.967346	6.243666	128.103000
68.990612	6.248524	128.149000
69.016282	6.252267	128.195000
69.042214	6.256794	128.242000
69.066893	6.262566	128.288000
69.092149	6.266069	128.334000
69.118004	6.269522	128.381000
69.323621	6.273844	128.427000
69.347931	6.325711	128.806000
69.372680	6.334336	128.853000
69.397827	6.344031	128.899000
69.423114	6.352750	128.945000
69.448070	6.363503	128.992000
69.474032	6.372015	129.037000
69.499026	6.379834	129.085000
69.523990	6.387821	129.131000
69.549453	6.393947	129.178000
69.574793	6.403207	129.224000
69.599480	6.414700	129.271000
69.623859	6.425714	129.317000
69.649491	6.437123	129.363000
69.674470	6.446446	129.410000
69.699126	6.456780	129.456000
69.725227	6.466099	129.502000
69.808562	6.473206	129.549000
69.893049	6.523957	129.703000
69.917291	6.533716	129.859000
69.943268	6.546153	129.906000
69.968462	6.558019	129.951000
69.993226	6.569389	129.997000
70.019189	6.583137	130.045000
70.044790	6.596204	130.091000
70.069653	6.606934	130.138000
70.093810	6.619901	130.183000
70.119020	6.632463	130.230000
70.143599	6.645854	130.276000
70.168878	6.657599	130.323000
70.194310	6.670739	130.369000
70.219850	6.681992	130.416000
70.244913	6.694110	130.462000
70.270307	6.708262	130.509000
70.295632	6.721145	130.555000
70.320641	6.733803	130.602000
70.403369	6.745517	130.647000
70.488340	6.806737	130.801000
70.513865	6.817098	130.958000
70.539620	6.826532	131.006000
70.564099	6.836720	131.052000
70.589293	6.844801	131.098000
70.615701	6.853581	131.145000
70.640288	6.863429	131.192000
70.664522	6.873263	131.238000
70.689754	6.882126	131.285000
70.715264	6.890953	131.330000
70.740335	6.900032	131.377000
70.765629	6.908494	131.424000
70.790953	6.917853	131.470000
70.815571	6.928518	131.516000
70.841057	6.940499	131.562000
70.865636	6.953177	131.608000
70.890308	6.965227	131.654000
70.914964	6.979425	131.700000
70.999736	6.992763	131.747000
71.084776	7.084369	131.902000
71.109924	7.099326	132.059000
71.134796	7.112813	132.104000
71.159344	7.127005	132.151000
71.184892	7.139625	132.198000
71.209287	7.150808	132.245000
71.234458	7.162155	132.291000
71.259928	7.173379	132.337000
71.284915	7.184672	132.382000
71.310117	7.196247	132.429000
71.335342	7.208359	132.474000
71.359575	7.217789	132.520000
71.383755	7.226630	132.566000
71.409441	7.236433	132.613000
71.434888	7.246754	132.660000
71.459153	7.254563	132.706000
71.484716	7.265053	132.752000
71.510317	7.273825	132.799000
71.594159	7.283367	132.845000
71.795235	7.409066	133.000000
71.821197	7.421924	133.372000
71.845538	7.435575	133.418000
71.870779	7.447946	133.464000
71.894858	7.459778	133.510000
71.920083	7.471549	133.557000
71.945708	7.484106	133.603000
71.971002	7.493825	133.649000
71.995934	7.504820	133.696000
72.021198	7.516255	133.742000
72.046553	7.526100	133.788000
72.072208	7.538068	133.834000
72.096180	7.550321	133.881000
72.301636	7.564534	133.927000
72.326592	7.657984	134.307000
72.351878	7.667114	134.353000
72.377072	7.677673	134.399000
72.402773	7.686499	134.446000
72.427606	7.695158	134.493000
72.452393	7.703230	134.539000
72.478125	7.708811	134.585000
72.502328	7.716602	134.631000
72.526738	7.724450	134.678000
72.552877	7.735639	134.724000
72.577434	7.747941	134.770000
72.602443	7.760968	134.816000
72.627184	7.775636	134.862000
72.653169	7.790541	134.908000
72.677826	7.805990	134.954000
72.702974	7.821419	135.000000
72.786124	7.837600	135.047000
72.871802	7.933805	135.202000
72.896627	7.949234	135.358000
72.921360	7.963306	135.404000
72.946524	7.976264	135.449000
72.971457	7.989172	135.495000
72.995275	8.002883	135.542000
73.020938	8.015746	135.589000
73.046086	8.026265	135.635000
73.070942	8.038658	135.682000
73.095821	8.049028	135.727000
73.122275	8.059646	135.774000
73.146609	8.068347	135.820000
73.170988	8.077002	135.865000
73.195975	8.086071	135.912000
73.220885	8.092678	135.958000
73.245702	8.098860	136.005000
73.271273	8.105050	136.050000
73.296951	8.114346	136.097000
73.380555	8.123361	136.144000
73.468100	8.186869	136.299000
73.492364	8.199756	136.459000
73.518204	8.212524	136.505000
73.542360	8.223799	136.551000
73.566817	8.234879	136.598000
73.592802	8.246709	136.645000
73.618004	8.261078	136.691000
73.643091	8.274971	136.737000
73.668185	8.288349	136.785000
73.694155	8.299549	136.831000
73.719395	8.310485	136.877000
73.743736	8.322565	136.924000
73.769199	8.333976	136.970000
73.793779	8.348714	137.016000
73.818343	8.361892	137.062000
73.844197	8.374872	137.109000
73.869683	8.389378	137.155000
73.894570	8.403810	137.201000
73.978589	8.418808	137.247000
74.062684	8.519785	137.402000
74.087356	8.535221	137.559000
74.112150	8.551642	137.605000
74.137121	8.568334	137.651000
74.163345	8.588838	137.697000
74.188693	8.610718	137.744000
74.213103	8.630362	137.790000
74.238289	8.648829	137.836000
74.263845	8.664487	137.882000
74.287902	8.680754	137.928000
74.312151	8.693876	137.974000
74.338336	8.708199	138.020000
74.362585	8.724313	138.067000
74.387479	8.739118	138.113000
74.413703	8.753051	138.159000
74.438951	8.768110	138.206000
74.463722	8.782233	138.252000
74.488770	8.799352	138.297000
74.571444	8.817250	138.344000
74.773773	9.060111	138.498000
74.798821	9.090448	138.871000
74.823154	9.122930	138.918000
74.848325	9.154979	138.963000
74.873834	9.188000	139.010000
74.898905	9.219090	139.056000
74.923992	9.252362	139.102000
74.950000	9.284380	139.149000
74.975340	9.316953	139.195000
74.999328	9.348903	139.242000
75.024261	9.381486	139.288000
75.050277	9.413482	139.334000
75.075095	9.444349	139.380000
75.281080	9.474341	139.427000
75.306805	9.722541	139.807000
75.331699	9.750738	139.853000
75.356540	9.780407	139.899000
75.381257	9.810296	139.945000
75.406705	9.842628	139.991000
75.430639	9.876730	140.038000
75.456901	9.910091	140.084000
75.482126	9.943427	140.131000
75.506590	9.978450	140.177000
75.532245	10.011765	140.224000
75.557662	10.048010	140.270000
75.582426	10.083501	140.316000
75.607627	10.119713	140.362000
75.632606	10.157303	140.409000
75.657662	10.195480	140.455000
75.682464	10.231073	140.502000
75.767151	10.267677	140.549000
75.851101	10.476362	140.703000
75.877140	10.511641	140.859000
75.901535	10.545707	140.904000
75.925469	10.581388	140.951000
75.951208	10.618052	140.997000
75.975703	10.653363	141.042000
76.001143	10.691441	141.090000
76.026606	10.727897	141.136000
76.052054	10.764545	141.183000
76.076587	10.803137	141.228000
76.101474	10.841287	141.275000
76.126875	10.881919	141.321000
76.150779	10.921882	141.367000
76.175857	10.963539	141.413000
76.201090	11.005285	141.460000
76.227045	11.048300	141.505000
76.251340	11.093071	141.551000
76.276818	11.134900	141.599000
76.360391	11.175527	141.644000
76.447114	11.428856	141.799000
76.471724	11.470798	141.959000
76.496188	11.513234	142.005000
76.522212	11.555418	142.052000
76.547491	11.600093	142.098000
76.572362	11.646160	142.144000
76.597802	11.694175	142.190000
76.622827	11.746154	142.237000
76.648398	11.797851	142.283000
76.673545	11.852280	142.330000
76.699039	11.908444	142.377000
76.722773	11.966633	142.423000
76.747752	12.021925	142.469000
76.772977	12.078427	142.516000
76.798502	12.136893	142.561000
76.822827	12.195617	142.607000
76.848636	12.253996	142.653000
76.873930	12.314174	142.700000
76.956658	12.373795	142.746000
77.042367	12.722140	142.901000
77.067376	12.779818	143.060000
77.092678	12.834965	143.106000
77.118710	12.891406	143.152000
77.143066	12.950189	143.198000
77.168859	13.012717	143.244000
77.193692	13.074898	143.291000
77.217719	13.135512	143.336000
77.243205	13.195488	143.382000
77.268038	13.256179	143.430000
77.293047	13.315044	143.476000
77.318403	13.370460	143.522000
77.344058	13.426236	143.568000
77.369459	13.484836	143.614000
77.393731	13.542655	143.660000
77.419386	13.606816	143.707000
77.443382	13.672219	143.753000
77.468199	13.737477	143.799000
77.552894	13.803427	143.846000
77.753302	14.638097	144.000000
77.778703	14.735249	144.372000
77.804696	14.830996	144.418000
77.829337	14.928583	144.465000
77.854324	15.018897	144.512000
77.880271	15.101328	144.558000
77.905157	15.181042	144.604000
77.930029	15.262018	144.650000
77.955161	15.348365	144.697000
77.978972	15.438342	144.743000
78.004074	15.528096	144.789000
78.030029	15.619274	144.836000
78.055185	15.703693	144.881000
78.259979	15.786791	144.928000
78.285404	16.345080	145.307000
78.310168	16.406322	145.353000
78.334401	16.467951	145.398000
78.359380	16.527885	145.445000
78.385404	16.591043	145.491000
78.410713	16.653433	145.538000
78.435201	16.715465	145.584000
78.460648	16.780520	145.630000
78.486380	16.849330	145.677000
78.510967	16.918253	145.723000
78.535531	16.982897	145.770000
78.560787	17.046726	145.815000
78.584974	17.109614	145.862000
78.609792	17.172865	145.908000
78.635808	17.240369	145.953000
78.661125	17.310953	146.000000
78.745251	17.384024	146.047000
78.829708	17.818463	146.202000
78.854948	17.885504	146.359000
78.880242	17.956686	146.406000
78.904890	18.029163	146.452000
78.929900	18.107611	146.499000
78.955401	18.190855	146.544000
78.980910	18.281928	146.591000
79.005912	18.375261	146.636000
79.030630	18.471074	146.683000
79.056554	18.566062	146.730000
79.080772	18.662557	146.776000
79.105936	18.758623	146.822000
79.130876	18.850696	146.868000
79.155932	18.942898	146.915000
79.180465	19.036953	146.960000
79.206243	19.131207	147.006000
79.231391	19.227468	147.053000
79.255847	19.325697	147.099000
79.339689	19.423091	147.146000
79.425514	19.940282	147.300000
79.451169	20.023999	147.460000
79.475648	20.108661	147.506000
79.501126	20.196047	147.551000
79.526904	20.287370	147.598000
79.550685	20.383769	147.643000
79.575848	20.480562	147.690000
79.600589	20.577005	147.736000
79.626059	20.675066	147.782000
79.650693	20.779555	147.829000
79.676478	20.885449	147.876000
79.702379	20.991486	147.922000
79.726813	21.099741	147.968000
79.751984	21.203860	148.015000
79.777608	21.308837	148.061000
79.801742	21.413393	148.107000
79.826306	21.518686	148.153000
79.851661	21.624778	148.200000
79.935334	21.729815	148.246000
80.021842	22.305186	148.401000
80.046298	22.407829	148.559000
80.071515	22.507334	148.605000
80.097355	22.605836	148.651000
80.121081	22.699709	148.697000
80.145638	22.792748	148.744000
80.171062	22.882032	148.789000
80.195734	22.972672	148.835000
80.221074	23.070004	148.882000
80.246783	23.170743	148.928000
80.272330	23.272609	148.974000
80.296618	23.373971	149.021000
80.321850	23.474344	149.066000
80.347152	23.577397	149.113000
80.370901	23.682960	149.159000
80.396103	23.789795	149.205000
80.421758	23.896415	149.252000
80.447467	23.998924	149.298000
80.530955	24.095596	149.345000
80.732393	25.172872	149.499000
80.757656	25.294442	149.872000
80.783388	25.423335	149.919000
80.808574	25.543437	149.965000
80.832954	25.658951	150.011000
80.858109	25.773206	150.058000
80.883219	25.886194	150.104000
80.907591	25.996514	150.149000
80.933200	26.110059	150.196000
80.958824	26.218083	150.242000
80.984510	26.319213	150.290000
81.009035	26.423110	150.336000
81.034913	26.533804	150.382000
81.238540	26.656145	150.429000
81.262835	27.763868	150.807000
81.289059	27.895244	150.853000
81.314176	28.030367	150.900000
81.339209	28.171478	150.946000
81.364096	28.321585	150.991000
81.390250	28.477837	151.038000
81.415390	28.639918	151.085000
81.439493	28.811831	151.131000
81.464903	28.992797	151.177000
81.489344	29.169322	151.224000
81.514415	29.345331	151.270000
81.539179	29.524906	151.317000
