Sample	2mm tape 
date	07/01/2025
	
Temperature (K)	77.00
Angle (deg.)	90.000000
field / T	0.000000
	
		
Approx. trace time (s)	120.0	
		
Current / A	V1  -sample/ uV	time/s
-0.019388	-0.799212	0.000000
-0.018781	-0.807584	0.046000
-0.018664	-0.817172	0.092000
-0.018646	-0.827570	0.138000
-0.018192	-0.836235	0.185000
-0.019517	-0.846713	0.231000
-0.018658	-0.857471	0.277000
-0.018836	-0.868800	0.324000
0.018802	-0.984900	0.478000
0.045316	-0.996285	0.842000
0.071546	-1.007002	0.889000
0.095272	-1.018191	0.935000
0.120499	-1.030145	0.981000
0.146288	-1.041984	1.027000
0.170661	-1.052749	1.074000
0.195631	-1.062207	1.121000
0.221062	-1.071435	1.168000
0.245799	-1.081485	1.214000
0.270897	-1.089557	1.260000
0.295843	-1.096633	1.306000
0.321083	-1.106041	1.352000
0.523407	-1.112978	1.398000
0.549120	-1.192209	1.772000
0.574041	-1.201527	1.818000
0.599691	-1.209790	1.865000
0.624991	-1.219713	1.911000
0.650033	-1.229683	1.958000
0.674395	-1.239281	2.004000
0.698979	-1.248239	2.050000
0.723741	-1.257191	2.097000
0.749926	-1.267239	2.143000
0.774467	-1.276050	2.189000
0.800021	-1.285729	2.235000
0.825114	-1.294228	2.282000
0.850408	-1.303432	2.328000
0.875561	-1.310055	2.374000
0.899886	-1.316730	2.421000
0.924701	-1.324800	2.467000
1.008688	-1.331736	2.513000
1.095856	-1.353740	2.667000
1.120974	-1.357751	2.828000
1.146143	-1.361544	2.875000
1.171281	-1.364258	2.921000
1.196587	-1.368255	2.967000
1.221883	-1.370503	3.014000
1.246002	-1.374427	3.060000
1.270860	-1.378514	3.106000
1.296055	-1.378544	3.152000
1.321220	-1.379569	3.199000
1.346293	-1.379819	3.245000
1.371776	-1.380408	3.291000
1.397255	-1.379414	3.338000
1.421585	-1.377619	3.384000
1.446728	-1.375801	3.429000
1.471031	-1.375002	3.476000
1.496018	-1.373937	3.522000
1.521290	-1.373232	3.568000
1.605835	-1.373857	3.615000
1.692473	-1.351581	3.769000
1.717525	-1.346922	3.929000
1.742673	-1.344533	3.976000
1.767004	-1.339986	4.021000
1.791263	-1.335158	4.068000
1.816357	-1.329988	4.114000
1.841602	-1.325656	4.160000
1.867449	-1.320323	4.206000
1.892443	-1.315566	4.253000
1.917553	-1.311220	4.298000
1.942514	-1.307166	4.345000
1.967822	-1.303633	4.391000
1.992456	-1.302398	4.438000
2.016978	-1.298855	4.484000
2.041961	-1.296907	4.530000
2.066830	-1.291990	4.576000
2.092590	-1.289361	4.622000
2.118355	-1.286724	4.669000
2.202314	-1.284884	4.715000
2.288572	-1.271577	4.871000
2.312956	-1.269808	5.029000
2.337520	-1.267860	5.076000
2.361698	-1.266961	5.121000
2.387435	-1.267219	5.168000
2.412409	-1.265502	5.213000
2.437562	-1.264087	5.259000
2.462628	-1.261199	5.306000
2.487741	-1.256077	5.351000
2.513047	-1.252648	5.398000
2.537975	-1.250450	5.445000
2.563027	-1.249395	5.491000
2.587397	-1.249835	5.537000
2.613022	-1.249295	5.583000
2.637955	-1.247373	5.630000
2.662936	-1.244631	5.676000
2.688371	-1.242439	5.722000
2.713781	-1.240156	5.769000
2.796866	-1.240056	5.815000
2.998680	-1.238535	5.970000
3.023858	-1.237279	6.341000
3.047398	-1.234066	6.387000
3.072321	-1.230233	6.433000
3.098050	-1.228547	6.480000
3.123270	-1.226585	6.526000
3.148688	-1.223822	6.572000
3.173527	-1.220194	6.618000
3.198846	-1.215059	6.664000
3.223853	-1.210220	6.710000
3.248040	-1.204129	6.757000
3.273511	-1.195527	6.803000
3.297808	-1.187064	6.849000
3.503210	-1.179758	6.896000
3.528058	-1.110216	7.272000
3.553459	-1.099206	7.319000
3.578147	-1.088331	7.365000
3.601988	-1.075635	7.410000
3.627528	-1.064450	7.458000
3.653090	-1.052144	7.504000
3.677957	-1.040155	7.551000
3.703525	-1.030569	7.597000
3.728741	-1.022799	7.643000
3.753430	-1.017028	7.689000
3.778830	-1.012341	7.735000
3.803579	-1.009112	7.782000
3.828076	-1.006913	7.828000
3.853305	-1.006814	7.874000
3.878141	-1.004874	7.921000
3.903651	-1.005095	7.967000
3.988295	-1.003251	8.014000
4.074810	-1.002216	8.169000
4.100234	-1.002066	8.329000
4.125337	-1.001966	8.375000
4.150172	-0.999557	8.421000
4.174505	-1.003370	8.467000
4.199449	-0.999292	8.514000
4.224835	-0.991247	8.560000
4.249707	-0.984482	8.606000
4.274820	-0.975846	8.651000
4.300034	-0.968651	8.698000
4.325141	-0.960230	8.744000
4.349953	-0.953729	8.790000
4.374119	-0.946473	8.836000
4.398878	-0.935970	8.882000
4.424155	-0.925291	8.928000
4.449609	-0.915592	8.975000
4.474526	-0.906158	9.021000
4.499915	-0.896994	9.067000
4.583412	-0.888653	9.113000
4.671211	-0.845224	9.267000
4.695787	-0.838098	9.429000
4.720065	-0.829708	9.475000
4.745526	-0.823358	9.522000
4.770698	-0.815096	9.568000
4.796068	-0.807574	9.615000
4.821019	-0.800913	9.661000
4.846709	-0.793221	9.707000
4.872190	-0.785159	9.754000
4.896952	-0.775040	9.799000
4.921592	-0.765411	9.846000
4.945550	-0.756343	9.891000
4.971008	-0.747596	9.937000
4.996223	-0.737306	9.984000
5.021716	-0.727412	10.031000
5.046926	-0.715927	10.078000
5.071791	-0.703035	10.124000
5.097247	-0.690779	10.170000
5.180497	-0.679725	10.216000
5.265792	-0.621172	10.370000
5.291180	-0.609613	10.529000
5.316469	-0.595515	10.575000
5.341760	-0.583203	10.622000
5.366689	-0.570106	10.669000
5.392355	-0.556493	10.715000
5.417398	-0.542011	10.761000
5.442539	-0.528110	10.807000
5.466919	-0.515112	10.853000
5.491729	-0.501256	10.900000
5.516865	-0.487790	10.946000
5.541786	-0.474901	10.992000
5.567390	-0.465308	11.039000
5.592758	-0.454524	11.085000
5.618099	-0.444929	11.132000
5.642538	-0.435890	11.178000
5.668188	-0.426874	11.223000
5.692404	-0.419305	11.270000
5.775941	-0.412833	11.316000
5.976990	-0.315844	11.471000
6.001901	-0.307721	11.842000
6.027203	-0.297427	11.888000
6.052714	-0.287873	11.935000
6.077911	-0.278605	11.981000
6.102819	-0.268591	12.027000
6.128088	-0.258372	12.073000
6.153234	-0.246421	12.120000
6.177781	-0.236367	12.166000
6.202811	-0.226204	12.212000
6.227818	-0.216865	12.259000
6.253240	-0.207126	12.305000
6.278268	-0.201026	12.351000
6.481400	-0.190892	12.398000
6.506181	-0.122105	12.772000
6.531250	-0.115079	12.819000
6.556068	-0.107444	12.865000
6.581625	-0.101502	12.912000
6.606670	-0.096090	12.958000
6.631725	-0.090903	13.004000
6.656989	-0.086885	13.049000
6.681934	-0.081725	13.096000
6.706708	-0.076371	13.142000
6.731775	-0.071194	13.188000
6.756273	-0.064669	13.234000
6.781604	-0.062030	13.281000
6.806985	-0.057793	13.327000
6.831820	-0.053471	13.374000
6.857154	-0.051311	13.420000
6.882364	-0.048178	13.466000
6.965706	-0.047094	13.511000
7.053847	-0.038574	13.667000
7.079125	-0.037660	13.830000
7.103142	-0.035542	13.876000
7.128826	-0.034502	13.922000
7.153762	-0.033567	13.968000
7.178884	-0.032482	14.014000
7.203769	-0.030054	14.060000
7.229185	-0.029895	14.106000
7.254817	-0.029180	14.152000
7.278833	-0.030835	14.199000
7.303165	-0.032993	14.245000
7.328380	-0.037610	14.291000
7.353828	-0.040474	14.337000
7.379316	-0.042518	14.383000
7.403843	-0.045840	14.429000
7.429058	-0.049043	14.475000
7.454444	-0.053790	14.522000
7.479975	-0.057074	14.569000
7.563136	-0.062100	14.615000
7.649611	-0.087679	14.769000
7.674999	-0.092128	14.929000
7.699833	-0.096650	14.975000
7.725292	-0.101821	15.022000
7.750556	-0.105414	15.068000
7.775849	-0.111816	15.115000
7.801100	-0.115489	15.162000
7.825984	-0.120291	15.207000
7.850907	-0.124135	15.254000
7.875580	-0.128056	15.300000
7.900661	-0.133164	15.346000
7.925905	-0.135945	15.393000
7.950844	-0.138006	15.439000
7.976260	-0.139190	15.485000
8.001601	-0.141679	15.532000
8.026652	-0.141839	15.578000
8.052257	-0.142137	15.625000
8.077234	-0.142368	15.671000
8.160065	-0.144416	15.717000
8.245486	-0.151402	15.871000
8.270565	-0.153007	16.029000
8.295855	-0.152177	16.074000
8.321078	-0.153127	16.121000
8.345977	-0.152566	16.168000
8.370995	-0.153552	16.214000
8.395025	-0.152516	16.260000
8.419991	-0.153117	16.307000
8.445488	-0.153441	16.353000
8.470757	-0.153311	16.399000
8.496012	-0.152606	16.445000
8.521318	-0.146995	16.491000
8.546400	-0.143062	16.538000
8.571107	-0.138146	16.583000
8.595950	-0.133938	16.630000
8.620921	-0.128801	16.676000
8.645393	-0.123008	16.723000
8.671234	-0.116333	16.770000
8.755954	-0.110411	16.815000
8.956187	-0.018431	16.971000
8.981667	-0.012161	17.341000
9.006486	-0.004249	17.388000
9.031917	0.000717	17.434000
9.057296	0.007623	17.481000
9.082359	0.013145	17.527000
9.106573	0.017953	17.573000
9.132209	0.024758	17.620000
9.157159	0.030548	17.667000
9.182360	0.038520	17.713000
9.207439	0.045537	17.759000
9.232548	0.054440	17.805000
9.258412	0.062723	17.852000
9.459913	0.072857	17.898000
9.485176	0.140890	18.272000
9.510396	0.152451	18.318000
9.535964	0.161719	18.365000
9.561345	0.171954	18.411000
9.586179	0.181773	18.458000
9.611645	0.192167	18.504000
9.635707	0.200069	18.550000
9.661022	0.211205	18.596000
9.685944	0.219077	18.643000
9.711046	0.228155	18.689000
9.736363	0.235762	18.736000
9.761400	0.245384	18.782000
9.787074	0.252162	18.828000
9.811541	0.257943	18.873000
9.837263	0.264143	18.921000
9.862466	0.268032	18.967000
9.945727	0.271179	19.014000
10.032137	0.292229	19.169000
10.057264	0.295582	19.328000
10.082827	0.297731	19.375000
10.107775	0.302458	19.422000
10.133052	0.304093	19.468000
10.158066	0.308490	19.513000
10.183636	0.310588	19.560000
10.207971	0.313977	19.606000
10.232535	0.316015	19.652000
10.257561	0.318185	19.698000
10.282678	0.321588	19.745000
10.307928	0.321297	19.791000
10.333239	0.321748	19.838000
10.358742	0.323052	19.884000
10.383853	0.322257	19.930000
10.409124	0.321678	19.977000
10.434078	0.322592	20.023000
10.458474	0.320453	20.069000
10.542256	0.320644	20.115000
10.628615	0.304352	20.270000
10.654326	0.302318	20.430000
10.679573	0.298660	20.476000
10.704588	0.300570	20.523000
10.730218	0.298755	20.570000
10.755014	0.298141	20.615000
10.779398	0.296626	20.662000
10.804004	0.294867	20.708000
10.829611	0.293033	20.755000
10.854987	0.289911	20.801000
10.879728	0.286047	20.848000
10.905086	0.282705	20.894000
10.930524	0.277957	20.939000
10.955544	0.271845	20.986000
10.980903	0.268042	21.032000
11.005347	0.263240	21.079000
11.030268	0.260152	21.125000
11.055345	0.254010	21.171000
11.139663	0.250623	21.217000
11.224683	0.221379	21.373000
11.249970	0.217276	21.528000
11.274714	0.210159	21.575000
11.299155	0.203598	21.622000
11.323658	0.200080	21.668000
11.348926	0.197738	21.714000
11.374455	0.191556	21.760000
11.399787	0.187899	21.807000
11.425235	0.183364	21.854000
11.450309	0.179816	21.899000
11.475464	0.175111	21.946000
11.500731	0.168145	21.992000
11.524843	0.163661	22.038000
11.549726	0.157811	22.084000
11.574823	0.152451	22.130000
11.600073	0.146681	22.177000
11.625465	0.141115	22.223000
11.650680	0.135600	22.270000
11.734712	0.132422	22.315000
11.935287	0.129330	22.470000
11.960874	0.131851	22.842000
11.985907	0.133097	22.889000
12.010942	0.136786	22.934000
12.035556	0.140850	22.981000
12.060972	0.147937	23.028000
12.085985	0.153617	23.074000
12.110913	0.160924	23.121000
12.136246	0.166744	23.166000
12.161202	0.172999	23.212000
12.186381	0.182014	23.258000
12.211299	0.188268	23.305000
12.235594	0.195215	23.351000
12.439017	0.202602	23.397000
12.464572	0.259626	23.772000
12.489912	0.266034	23.819000
12.514782	0.272554	23.865000
12.540271	0.279600	23.911000
12.564667	0.289671	23.958000
12.589395	0.296616	24.004000
12.614688	0.305217	24.051000
12.639678	0.312927	24.097000
12.664962	0.322246	24.143000
12.689950	0.329808	24.190000
12.715692	0.340577	24.236000
12.740635	0.351460	24.282000
12.765517	0.362794	24.328000
12.789965	0.374856	24.374000
12.814912	0.387305	24.421000
12.839641	0.400232	24.466000
12.923829	0.413180	24.513000
13.011824	0.481716	24.668000
13.036702	0.493862	24.829000
13.061800	0.504072	24.875000
13.087248	0.514956	24.921000
13.112154	0.525311	24.968000
13.137047	0.538128	25.014000
13.161336	0.550309	25.061000
13.186729	0.562405	25.106000
13.211415	0.574792	25.153000
13.237131	0.585066	25.199000
13.262089	0.596677	25.246000
13.286947	0.607011	25.292000
13.312482	0.619773	25.337000
13.337008	0.628391	25.384000
13.361879	0.638511	25.430000
13.386371	0.650756	25.476000
13.411855	0.663148	25.522000
13.437020	0.674393	25.569000
13.521458	0.684788	25.616000
13.607581	0.732101	25.770000
13.632687	0.737079	25.929000
13.656558	0.739087	25.975000
13.680866	0.742017	26.020000
13.706197	0.745879	26.066000
13.730832	0.748297	26.112000
13.756353	0.750606	26.157000
13.781779	0.752935	26.205000
13.806968	0.757333	26.250000
13.831919	0.759241	26.297000
13.856902	0.761810	26.343000
13.881736	0.762189	26.390000
13.906119	0.764379	26.436000
13.931403	0.764349	26.481000
13.956434	0.764688	26.528000
13.981143	0.764139	26.573000
14.006691	0.762010	26.620000
14.031472	0.758616	26.666000
14.114492	0.756217	26.711000
14.203483	0.750901	26.867000
14.228398	0.752865	27.030000
14.252859	0.754354	27.076000
14.277973	0.756458	27.123000
14.303168	0.758387	27.168000
14.328690	0.760596	27.215000
14.354204	0.765553	27.262000
14.379620	0.768121	27.308000
14.404682	0.772883	27.354000
14.429891	0.775857	27.401000
14.454205	0.779741	27.447000
14.479355	0.783372	27.494000
14.503706	0.788099	27.540000
14.529383	0.791084	27.585000
14.554255	0.794637	27.632000
14.579744	0.797819	27.679000
14.604921	0.802837	27.725000
14.630189	0.808538	27.771000
14.712986	0.809307	27.818000
14.914211	0.857639	27.972000
14.938474	0.861883	28.341000
14.963046	0.865555	28.387000
14.988722	0.867783	28.434000
15.014362	0.869703	28.480000
15.039545	0.871952	28.526000
15.064549	0.878284	28.573000
15.089857	0.884929	28.619000
15.114385	0.892991	28.664000
15.138975	0.897514	28.711000
15.163380	0.904501	28.756000
15.189106	0.910076	28.803000
15.213947	0.913064	28.849000
15.419186	0.913044	28.896000
15.443970	0.935469	29.272000
15.468667	0.937076	29.319000
15.493225	0.940805	29.365000
15.518109	0.939738	29.410000
15.543485	0.942606	29.457000
15.568333	0.942285	29.503000
15.593376	0.943412	29.549000
15.618859	0.944203	29.594000
15.644299	0.945589	29.641000
15.668564	0.945499	29.688000
15.694042	0.943983	29.734000
15.718436	0.944758	29.781000
15.743469	0.944013	29.827000
15.768887	0.945669	29.873000
15.794459	0.945793	29.920000
15.819711	0.947240	29.965000
15.903671	0.946454	30.012000
15.991467	0.932692	30.167000
16.016297	0.926091	30.330000
16.040530	0.921737	30.375000
16.064929	0.914810	30.421000
16.090228	0.910962	30.467000
16.115319	0.905432	30.514000
16.140711	0.901303	30.560000
16.166262	0.897060	30.606000
16.191812	0.893421	30.653000
16.216358	0.890508	30.699000
16.241439	0.886910	30.744000
16.266821	0.883280	30.791000
16.291068	0.877814	30.837000
16.316209	0.875976	30.884000
16.341581	0.871972	30.931000
16.366729	0.870878	30.977000
16.391645	0.868059	31.022000
16.417242	0.865027	31.069000
16.501380	0.861894	31.115000
16.586739	0.843668	31.270000
16.611459	0.841830	31.430000
16.636691	0.842068	31.476000
16.661676	0.839790	31.522000
16.687262	0.839512	31.569000
16.712170	0.838107	31.614000
16.737412	0.837083	31.661000
16.762996	0.834088	31.707000
16.787493	0.834048	31.753000
16.811665	0.834334	31.798000
16.835716	0.834744	31.844000
16.860877	0.836692	31.890000
16.885864	0.837621	31.936000
16.911273	0.840616	31.982000
16.935989	0.842374	32.028000
16.960709	0.848556	32.073000
16.985317	0.852039	32.118000
17.009535	0.858744	32.164000
17.093769	0.864521	32.210000
17.182121	0.909726	32.365000
17.206896	0.913919	32.529000
17.232469	0.920731	32.575000
17.257248	0.925506	32.620000
17.282138	0.932672	32.665000
17.305665	0.938807	32.711000
17.330260	0.945479	32.756000
17.355517	0.951369	32.803000
17.380292	0.958185	32.848000
17.405364	0.967234	32.894000
17.430358	0.972729	32.939000
17.455515	0.981336	32.986000
17.480195	0.987578	33.032000
17.504344	0.997142	33.079000
17.529401	1.005114	33.124000
17.554701	1.014893	33.171000
17.579930	1.022279	33.217000
17.604440	1.030788	33.262000
17.688826	1.040406	33.307000
17.892673	1.132477	33.462000
17.918171	1.140597	33.842000
17.943893	1.152150	33.889000
17.969151	1.157747	33.935000
17.994477	1.167576	33.982000
18.019418	1.176781	34.028000
18.044489	1.184951	34.074000
18.068876	1.191923	34.119000
18.093473	1.199957	34.166000
18.118171	1.208178	34.212000
18.143348	1.217194	34.258000
18.169335	1.225084	34.305000
18.194266	1.233069	34.350000
18.397086	1.242055	34.397000
18.421877	1.283047	34.772000
18.447438	1.286590	34.819000
18.472240	1.289257	34.865000
18.497248	1.292581	34.910000
18.523126	1.296353	34.956000
18.547870	1.299037	35.004000
18.573268	1.300231	35.050000
18.598017	1.303874	35.096000
18.622465	1.302500	35.142000
18.647317	1.303389	35.189000
18.672252	1.305429	35.234000
18.697978	1.307032	35.280000
18.722656	1.305878	35.327000
18.748197	1.307387	35.373000
18.773405	1.308401	35.420000
18.798476	1.308581	35.466000
18.881377	1.309636	35.512000
18.969788	1.329148	35.667000
18.994942	1.331756	35.830000
19.019604	1.335694	35.876000
19.045459	1.339343	35.922000
19.070361	1.343727	35.969000
19.095470	1.347946	36.015000
19.120860	1.352330	36.061000
19.145939	1.360021	36.107000
19.171033	1.366203	36.154000
19.195198	1.373339	36.200000
19.219919	1.378254	36.245000
19.244791	1.384815	36.292000
19.269910	1.388778	36.337000
19.295108	1.394549	36.383000
19.320110	1.398087	36.430000
19.345588	1.399823	36.476000
19.370333	1.403867	36.521000
19.394977	1.405604	36.568000
19.478429	1.408276	36.614000
19.565383	1.423866	36.769000
19.590314	1.427485	36.929000
19.615368	1.430307	36.975000
19.640994	1.434460	37.022000
19.666115	1.436458	37.068000
19.691609	1.441332	37.115000
19.716236	1.445526	37.161000
19.740787	1.451847	37.207000
19.765685	1.456401	37.254000
19.790587	1.462968	37.300000
19.816409	1.470044	37.346000
19.841269	1.478867	37.393000
19.866991	1.487595	37.439000
19.891880	1.495182	37.485000
19.917024	1.501748	37.532000
19.942032	1.510826	37.578000
19.966071	1.518103	37.623000
19.991260	1.524340	37.669000
20.075299	1.532472	37.716000
20.161817	1.572128	37.871000
20.186871	1.578980	38.030000
20.212240	1.581833	38.077000
20.237345	1.585176	38.122000
20.262061	1.585626	38.168000
20.286665	1.587615	38.215000
20.311610	1.587805	38.262000
20.336671	1.589729	38.308000
20.361710	1.589260	38.353000
20.386973	1.589983	38.400000
20.412209	1.590524	38.446000
20.437478	1.593837	38.492000
20.462618	1.596889	38.538000
20.487449	1.597350	38.585000
20.512146	1.601282	38.631000
20.536495	1.601552	38.677000
20.562171	1.602627	38.724000
20.586818	1.601717	38.770000
20.671432	1.600703	38.815000
20.871857	1.598755	38.971000
20.897439	1.602486	39.341000
20.922748	1.605851	39.389000
20.947821	1.609394	39.434000
20.972289	1.612878	39.481000
20.996749	1.619303	39.527000
21.022258	1.622720	39.573000
21.047431	1.628277	39.620000
21.072475	1.631960	39.666000
21.097681	1.639006	39.712000
21.122566	1.645533	39.757000
21.148023	1.654074	39.804000
21.172987	1.660114	39.850000
21.375453	1.664643	39.897000
21.401149	1.713955	40.272000
21.426331	1.718602	40.319000
21.452319	1.722284	40.365000
21.476785	1.726162	40.411000
21.501687	1.729400	40.458000
21.525828	1.732464	40.504000
21.550822	1.735957	40.550000
21.576228	1.739100	40.596000
21.601191	1.742966	40.642000
21.626549	1.745058	40.689000
21.651960	1.747340	40.735000
21.677025	1.747441	40.782000
21.702557	1.748366	40.828000
21.727306	1.747160	40.874000
21.751751	1.746925	40.921000
21.776507	1.745599	40.966000
21.860873	1.744868	41.013000
21.948259	1.733868	41.168000
21.973724	1.732363	41.330000
21.998887	1.731818	41.377000
22.024556	1.733037	41.423000
22.049874	1.734231	41.469000
22.074800	1.735576	41.515000
22.099673	1.738265	41.562000
22.124350	1.740093	41.608000
22.149266	1.742525	41.655000
22.173868	1.744763	41.701000
22.199398	1.748241	41.747000
22.224712	1.749701	41.793000
22.249619	1.754236	41.839000
22.275080	1.757289	41.885000
22.299871	1.763995	41.931000
22.324915	1.769270	41.978000
22.349762	1.773794	42.024000
22.374378	1.778348	42.070000
22.458315	1.782167	42.116000
22.544818	1.804783	42.270000
22.570409	1.811249	42.430000
22.595313	1.815048	42.476000
22.621220	1.818095	42.523000
22.645509	1.820307	42.569000
22.670114	1.821873	42.615000
22.695000	1.823440	42.662000
22.720291	1.824917	42.708000
22.745926	1.828620	42.755000
22.770994	1.829866	42.801000
22.796547	1.833805	42.847000
22.821242	1.834661	42.894000
22.846837	1.837743	42.940000
22.872041	1.839755	42.987000
22.896662	1.842498	43.032000
22.921645	1.845485	43.079000
22.946226	1.845455	43.126000
22.971636	1.846066	43.172000
23.056194	1.845104	43.218000
23.141027	1.847753	43.372000
23.166306	1.849540	43.530000
23.190735	1.852607	43.576000
23.215605	1.854599	43.623000
23.240555	1.857932	43.668000
23.266048	1.859263	43.715000
23.291315	1.861845	43.761000
23.315943	1.864398	43.807000
23.341496	1.866941	43.853000
23.366387	1.868207	43.900000
23.391707	1.870419	43.946000
23.415670	1.871044	43.992000
23.440553	1.872491	44.038000
23.465651	1.873306	44.084000
23.490736	1.873436	44.130000
23.515809	1.873091	44.176000
23.540742	1.872741	44.222000
23.566543	1.877725	44.269000
23.648951	1.880553	44.315000
23.851816	1.910576	44.470000
23.877141	1.912907	44.843000
23.901637	1.916516	44.889000
23.926244	1.919223	44.935000
23.951128	1.924318	44.982000
23.976722	1.927405	45.028000
24.002075	1.931394	45.074000
24.027521	1.934402	45.120000
24.053059	1.937776	45.167000
24.077807	1.941419	45.214000
24.103428	1.945317	45.260000
24.128126	1.949186	45.307000
24.152731	1.952025	45.353000
24.355048	1.955398	45.399000
24.380910	1.982129	45.772000
24.406185	1.987460	45.819000
24.430117	1.992458	45.865000
24.455609	1.996985	45.912000
24.480494	2.001418	45.958000
24.505607	2.006540	46.005000
24.530684	2.009738	46.051000
24.556314	2.014275	46.097000
24.581204	2.018273	46.144000
24.606715	2.023151	46.190000
24.631533	2.023910	46.236000
24.656873	2.025978	46.282000
24.681671	2.028018	46.329000
24.705930	2.029926	46.375000
24.731477	2.031301	46.421000
24.756308	2.030587	46.467000
24.840154	2.030786	46.513000
24.927673	2.020226	46.668000
24.953268	2.015659	46.830000
24.978866	2.010634	46.876000
25.004110	2.008225	46.923000
25.028821	2.004301	46.969000
25.052884	2.000212	47.015000
25.078216	1.994123	47.062000
25.103606	1.988915	47.109000
25.128741	1.982239	47.155000
25.154553	1.978246	47.202000
25.179513	1.971828	47.248000
25.205124	1.964494	47.294000
25.229947	1.957121	47.340000
25.255172	1.948190	47.387000
25.279583	1.941949	47.433000
25.304323	1.935003	47.479000
25.329462	1.928571	47.526000
25.354734	1.920930	47.572000
25.438847	1.915150	47.619000
25.524059	1.881504	47.773000
25.548826	1.876399	47.930000
25.572918	1.868196	47.976000
25.598246	1.863072	48.022000
25.623459	1.857071	48.068000
25.648459	1.852717	48.115000
25.674455	1.846962	48.161000
25.699232	1.842178	48.208000
25.725092	1.838379	48.254000
25.749831	1.834085	48.301000
25.774910	1.830767	48.347000
25.799695	1.824486	48.394000
25.824975	1.821453	48.440000
25.849947	1.817179	48.487000
25.874609	1.815803	48.533000
25.899814	1.812825	48.579000
25.925327	1.812315	48.625000
25.950450	1.812144	48.672000
26.034914	1.811920	48.718000
26.118969	1.824897	48.873000
26.144048	1.827744	49.029000
26.168904	1.829391	49.076000
26.194406	1.832288	49.122000
26.219427	1.834910	49.168000
26.244997	1.834910	49.214000
26.269778	1.835421	49.260000
26.294160	1.833654	49.307000
26.318806	1.835656	49.353000
26.343662	1.835716	49.398000
26.368745	1.837052	49.445000
26.393624	1.836337	49.491000
26.419014	1.839355	49.537000
26.444421	1.841151	49.583000
26.469408	1.845495	49.629000
26.494842	1.850625	49.676000
26.519921	1.857061	49.722000
26.544852	1.864538	49.769000
26.628801	1.870168	49.815000
26.829147	1.950380	49.971000
26.854560	1.958348	50.342000
26.879436	1.966037	50.388000
26.905031	1.971289	50.434000
26.930436	1.978726	50.481000
26.955629	1.983532	50.528000
26.981297	1.989554	50.574000
27.006503	1.993412	50.621000
27.032233	1.998349	50.667000
27.056253	2.002906	50.714000
27.081280	2.007714	50.760000
27.105704	2.011397	50.806000
27.131322	2.015050	50.852000
27.333922	2.016864	50.899000
27.358430	2.051915	51.272000
27.383536	2.057200	51.319000
27.408526	2.063082	51.365000
27.434304	2.070579	51.412000
27.459600	2.076964	51.458000
27.484827	2.084900	51.504000
27.509825	2.091627	51.551000
27.534865	2.098633	51.597000
27.560457	2.104124	51.644000
27.584510	2.111210	51.689000
27.609337	2.115462	51.736000
27.634375	2.120594	51.782000
27.659598	2.124628	51.829000
27.684658	2.128975	51.875000
27.710365	2.131873	51.921000
27.735430	2.132908	51.968000
27.819405	2.135791	52.013000
27.906760	2.151488	52.169000
27.931775	2.153746	52.330000
27.956516	2.156145	52.376000
27.980698	2.158953	52.422000
28.006526	2.159688	52.468000
28.031871	2.164165	52.515000
28.056487	2.167297	52.561000
28.082250	2.172923	52.607000
28.107035	2.176412	52.653000
28.132665	2.180160	52.700000
28.156883	2.183458	52.746000
28.181733	2.187066	52.793000
28.206603	2.190554	52.839000
28.231931	2.190644	52.885000
28.257356	2.194798	52.931000
28.282300	2.197976	52.978000
28.307563	2.200689	53.024000
28.333297	2.204006	53.071000
28.416797	2.209281	53.117000
28.501745	2.223034	53.272000
28.526865	2.225426	53.430000
28.552235	2.226863	53.476000
28.577207	2.228159	53.522000
28.602191	2.227719	53.568000
28.627610	2.227508	53.614000
28.653035	2.226562	53.661000
28.678206	2.225196	53.708000
28.702795	2.222984	53.754000
28.727583	2.219716	53.800000
28.752226	2.217303	53.846000
28.777107	2.211263	53.892000
28.801880	2.207435	53.937000
28.827230	2.202125	53.983000
28.852370	2.197010	54.029000
28.877332	2.192316	54.076000
28.902297	2.186595	54.122000
28.926773	2.181136	54.168000
29.010967	2.176622	54.214000
29.097332	2.160673	54.369000
29.122469	2.159729	54.529000
29.148230	2.160963	54.576000
29.172957	2.162545	54.622000
29.198689	2.167043	54.668000
29.223297	2.170390	54.714000
29.248445	2.175005	54.761000
29.272861	2.177953	54.808000
29.298111	2.183883	54.854000
29.323654	2.185800	54.900000
29.349083	2.190715	54.947000
29.374315	2.194758	54.994000
29.399108	2.201089	55.040000
29.424675	2.206829	55.087000
29.449302	2.210478	55.132000
29.474659	2.214772	55.178000
29.498820	2.217484	55.224000
29.523647	2.222934	55.271000
29.607696	2.226823	55.316000
29.808398	2.258917	55.471000
29.833615	2.261420	55.842000
29.859078	2.264507	55.889000
29.884353	2.267625	55.935000
29.909063	2.271814	55.981000
29.934441	2.272680	56.028000
29.958679	2.276804	56.074000
29.983085	2.276393	56.120000
30.008794	2.277089	56.165000
30.033723	2.279176	56.212000
30.058807	2.283420	56.259000
30.084305	2.287593	56.305000
30.108955	2.292448	56.351000
30.311781	2.295751	56.397000
30.336743	2.323657	56.772000
30.362144	2.326249	56.818000
30.387077	2.328641	56.865000
30.412417	2.334967	56.911000
30.437880	2.338335	56.957000
30.463251	2.345982	57.004000
30.487759	2.349815	57.051000
30.512218	2.354670	57.097000
30.537354	2.358398	57.142000
30.562537	2.364890	57.189000
30.587808	2.369524	57.236000
30.612669	2.377071	57.281000
30.637790	2.382472	57.328000
30.663109	2.388225	57.374000
30.688017	2.395640	57.420000
30.712873	2.402197	57.466000
30.796419	2.413861	57.512000
30.883911	2.465731	57.668000
30.909639	2.473841	57.829000
30.934760	2.480702	57.877000
30.960206	2.488268	57.923000
30.985394	2.495254	57.970000
31.011110	2.503614	58.015000
31.035768	2.509476	58.061000
31.060780	2.516032	58.108000
31.085375	2.520739	58.154000
31.109910	2.527081	58.200000
31.135179	2.530334	58.246000
31.160590	2.536366	58.293000
31.185796	2.538314	58.339000
31.211130	2.541612	58.386000
31.235792	2.544616	58.432000
31.261372	2.547095	58.478000
31.285967	2.549233	58.524000
31.311361	2.549033	58.571000
31.394668	2.551057	58.617000
31.480548	2.544001	58.772000
31.505808	2.542577	58.930000
31.531154	2.542508	58.977000
31.555944	2.543702	59.022000
31.580902	2.545610	59.068000
31.605963	2.548973	59.115000
31.630410	2.551147	59.161000
31.655802	2.554805	59.208000
31.680414	2.558668	59.254000
31.706225	2.562740	59.300000
31.730887	2.569537	59.346000
31.756212	2.573544	59.393000
31.781966	2.578471	59.439000
31.806523	2.581191	59.486000
31.831563	2.587766	59.531000
31.856027	2.592984	59.578000
31.880249	2.598830	59.623000
31.906072	2.602885	59.669000
31.990223	2.609606	59.715000
32.076435	2.642296	59.871000
32.101673	2.648457	60.029000
32.126919	2.653162	60.076000
32.150993	2.659407	60.122000
32.175638	2.665668	60.169000
32.200728	2.671439	60.214000
32.226049	2.678625	60.261000
32.251433	2.684926	60.307000
32.276662	2.694385	60.353000
32.301990	2.701992	60.399000
32.326754	2.711470	60.445000
32.351956	2.719158	60.492000
32.376904	2.728005	60.538000
32.401165	2.737084	60.584000
32.426340	2.747899	60.631000
32.451411	2.756182	60.677000
32.477123	2.764625	60.723000
32.502290	2.773348	60.770000
32.586555	2.781340	60.816000
32.787281	2.837773	60.971000
32.812326	2.842340	61.342000
32.838061	2.845583	61.389000
32.862921	2.848402	61.436000
32.887543	2.850145	61.482000
32.912207	2.851665	61.527000
32.937462	2.852899	61.574000
32.962453	2.852115	61.620000
32.987789	2.853648	61.666000
33.012991	2.853129	61.712000
33.038162	2.854652	61.759000
33.063690	2.855957	61.805000
33.088166	2.859011	61.851000
33.290640	2.858730	61.898000
33.316111	2.877300	62.271000
33.341197	2.879769	62.319000
33.366245	2.885145	62.365000
33.391339	2.890073	62.411000
33.415965	2.895545	62.458000
33.440786	2.899882	62.504000
33.466503	2.904940	62.551000
33.491343	2.910536	62.597000
33.516557	2.914933	62.644000
33.542104	2.920301	62.690000
33.567559	2.923814	62.736000
33.592780	2.928461	62.783000
33.617398	2.931874	62.828000
33.641609	2.935746	62.874000
33.665938	2.938480	62.920000
33.690860	2.943888	62.965000
33.775501	2.949049	63.011000
33.863215	2.980916	63.167000
33.889158	2.983994	63.330000
33.913860	2.989906	63.377000
33.939592	2.995028	63.423000
33.964660	3.002004	63.469000
33.988889	3.009430	63.516000
34.013937	3.013083	63.562000
34.038578	3.018915	63.608000
34.063684	3.021244	63.654000
34.088913	3.025020	63.700000
34.114694	3.026642	63.747000
34.139320	3.030380	63.793000
34.164791	3.030581	63.839000
34.190119	3.033829	63.886000
34.214022	3.035295	63.932000
34.239097	3.038243	63.978000
34.263584	3.039789	64.023000
34.288444	3.041295	64.070000
34.372478	3.042512	64.115000
34.459566	3.036911	64.270000
34.484691	3.035534	64.430000
34.508867	3.034794	64.476000
34.533435	3.033938	64.522000
34.558894	3.033233	64.568000
34.584576	3.034248	64.615000
34.609421	3.033022	64.661000
34.634219	3.033083	64.707000
34.659640	3.030240	64.753000
34.684480	3.028984	64.799000
34.709978	3.027837	64.845000
34.734277	3.026691	64.892000
34.759767	3.026771	64.938000
34.783927	3.024559	64.985000
34.809582	3.023914	65.031000
34.835068	3.023934	65.078000
34.859848	3.023954	65.124000
34.885264	3.022167	65.170000
34.968972	3.021383	65.216000
35.055272	3.001853	65.371000
35.080244	2.998570	65.530000
35.104427	2.992798	65.577000
35.129917	2.986867	65.622000
35.155457	2.978646	65.669000
35.180524	2.972450	65.715000
35.206053	2.963300	65.762000
35.230897	2.951797	65.808000
35.256210	2.940693	65.854000
35.281001	2.929224	65.901000
35.306053	2.917711	65.947000
35.330525	2.904839	65.993000
35.355696	2.892260	66.039000
35.380847	2.878533	66.086000
35.406360	2.867371	66.132000
35.431063	2.853972	66.178000
35.456645	2.839620	66.224000
35.481485	2.822235	66.270000
35.564251	2.806643	66.317000
35.765458	2.618594	66.470000
35.790283	2.603775	66.842000
35.815174	2.589610	66.888000
35.840345	2.578793	66.935000
35.865923	2.564620	66.981000
35.891129	2.551392	67.028000
35.916484	2.539204	67.074000
35.941901	2.525747	67.121000
35.966768	2.508651	67.166000
35.992366	2.494884	67.213000
36.016511	2.477575	67.260000
36.041406	2.457822	67.306000
36.066312	2.435923	67.352000
36.269558	2.410876	67.398000
36.295086	2.182917	67.772000
36.319796	2.155825	67.819000
36.344207	2.128555	67.865000
36.369320	2.100336	67.911000
36.394360	2.074696	67.957000
36.419508	2.048896	68.004000
36.445067	2.028148	68.049000
36.470488	2.006410	68.097000
36.495586	1.990099	68.143000
36.521257	1.972554	68.189000
36.546136	1.959677	68.236000
36.570315	1.947629	68.283000
36.595667	1.938311	68.329000
36.620158	1.931615	68.375000
36.645921	1.928096	68.422000
36.671195	1.928632	68.468000
36.755710	1.927977	68.515000
36.842663	1.966016	68.669000
36.867558	1.978914	68.830000
36.892967	1.993792	68.877000
36.917212	2.007924	68.923000
36.942329	2.024963	68.970000
36.967254	2.042588	69.016000
36.992544	2.061937	69.062000
37.017439	2.077604	69.108000
37.042399	2.095953	69.153000
37.067312	2.115243	69.199000
37.092529	2.134062	69.245000
37.117670	2.154860	69.292000
37.142030	2.175124	69.338000
37.167074	2.194527	69.385000
37.192341	2.211473	69.431000
37.218085	2.229625	69.478000
37.243198	2.245114	69.524000
37.267977	2.261519	69.570000
37.352303	2.277859	69.615000
37.437785	2.381678	69.771000
37.462956	2.398814	69.930000
37.487989	2.418678	69.976000
37.513417	2.435637	70.022000
37.538308	2.455042	70.068000
37.564074	2.472817	70.115000
37.589872	2.491612	70.161000
37.614320	2.509745	70.208000
37.639388	2.526842	70.254000
37.664720	2.545561	70.299000
37.688854	2.561676	70.346000
37.713537	2.579476	70.393000
37.739300	2.595260	70.439000
37.764578	2.613144	70.485000
37.789376	2.627147	70.531000
37.815108	2.643392	70.578000
37.840506	2.655919	70.624000
37.865247	2.671268	70.671000
37.948524	2.685075	70.717000
38.033457	2.750281	70.871000
38.059527	2.758493	71.031000
38.084813	2.767621	71.077000
38.109953	2.774453	71.123000
38.135320	2.781905	71.170000
38.161179	2.787575	71.216000
38.185850	2.791483	71.263000
38.210745	2.796859	71.309000
38.235908	2.802238	71.355000
38.259877	2.810115	71.401000
38.285140	2.815610	71.448000
38.310826	2.822366	71.494000
38.335978	2.826468	71.541000
38.361014	2.832735	71.587000
38.386423	2.836568	71.632000
38.411690	2.842758	71.679000
38.436731	2.846531	71.725000
38.462109	2.851354	71.772000
38.544649	2.856602	71.818000
38.745145	2.892935	71.973000
38.770112	2.895654	72.342000
38.794841	2.900895	72.389000
38.820915	2.904263	72.435000
38.845986	2.906336	72.482000
38.871261	2.908407	72.528000
38.895982	2.910029	72.574000
38.922083	2.915043	72.621000
38.946236	2.916788	72.667000
38.970477	2.922469	72.714000
38.995863	2.924868	72.760000
39.021180	2.930428	72.806000
39.046517	2.934890	72.853000
39.248357	2.942463	72.898000
39.273701	2.981146	73.272000
39.298695	2.985522	73.318000
39.323275	2.987731	73.365000
39.349049	2.991685	73.411000
39.374012	2.996121	73.457000
39.399233	3.000909	73.503000
39.423851	3.002903	73.549000
39.449621	3.008929	73.595000
39.473482	3.013697	73.642000
39.498968	3.019928	73.688000
39.524040	3.025475	73.734000
39.548957	3.030560	73.781000
39.574040	3.036660	73.827000
39.599806	3.041980	73.873000
39.625131	3.048612	73.919000
39.649138	3.053681	73.965000
39.732887	3.062675	74.012000
39.821943	3.103567	74.166000
39.846353	3.113297	74.330000
39.871036	3.120772	74.376000
39.896268	3.130372	74.421000
39.922204	3.138099	74.469000
39.947160	3.148443	74.515000
39.972212	3.155440	74.561000
39.997398	3.165399	74.608000
40.022681	3.175042	74.653000
40.046972	3.184492	74.699000
40.071851	3.193395	74.746000
40.097033	3.200081	74.793000
40.122066	3.207217	74.839000
40.147448	3.216116	74.886000
40.173053	3.227912	74.932000
40.197902	3.236791	74.978000
40.223019	3.247592	75.024000
40.248175	3.256316	75.070000
40.330418	3.265911	75.116000
40.416803	3.315353	75.271000
40.442286	3.324172	75.430000
40.467361	3.329675	75.477000
40.492854	3.336595	75.523000
40.518567	3.341912	75.568000
40.543235	3.348169	75.615000
40.568836	3.353267	75.662000
40.593254	3.358273	75.708000
40.617772	3.363221	75.755000
40.643412	3.367878	75.800000
40.668425	3.373220	75.847000
40.693596	3.375968	75.894000
40.718583	3.379756	75.941000
40.744491	3.382775	75.987000
40.769693	3.386248	76.032000
40.794660	3.388397	76.080000
40.820250	3.391619	76.127000
40.845429	3.394309	76.173000
40.928618	3.396937	76.219000
41.012475	3.393957	76.374000
41.038095	3.392599	76.530000
41.064077	3.388855	76.576000
41.089137	3.388306	76.622000
41.113216	3.385144	76.669000
41.138683	3.383719	76.715000
41.163720	3.381180	76.762000
41.188103	3.379232	76.808000
41.214554	3.376343	76.855000
41.239990	3.374525	76.902000
41.264331	3.373511	76.948000
41.289967	3.372266	76.994000
41.315099	3.374385	77.041000
41.340482	3.375408	77.087000
41.364489	3.375799	77.132000
41.390182	3.374465	77.179000
41.415099	3.376593	77.225000
41.439541	3.375918	77.272000
41.524427	3.377102	77.319000
41.723736	3.421827	77.473000
41.749426	3.431897	77.842000
41.774474	3.439072	77.889000
41.799418	3.447806	77.935000
41.824236	3.455031	77.981000
41.849518	3.463484	78.028000
41.874197	3.470240	78.074000
41.898758	3.478108	78.121000
41.924670	3.486541	78.166000
41.949972	3.493962	78.213000
41.974989	3.502636	78.260000
42.000260	3.511188	78.306000
42.025865	3.519977	78.352000
42.227037	3.525091	78.398000
42.252419	3.581884	78.772000
42.278144	3.590442	78.819000
42.302566	3.598724	78.865000
42.328516	3.603319	78.911000
42.353929	3.609229	78.958000
42.378467	3.610110	79.004000
42.402082	3.612857	79.050000
42.427487	3.611551	79.097000
42.452862	3.614183	79.142000
42.477195	3.614233	79.188000
42.502677	3.615110	79.234000
42.528248	3.612403	79.280000
42.552140	3.610575	79.326000
42.577556	3.609088	79.372000
42.602462	3.607993	79.418000
42.627011	3.606111	79.465000
42.711614	3.600432	79.511000
42.799578	3.586553	79.665000
42.825843	3.587529	79.831000
42.850876	3.589771	79.877000
42.875490	3.591722	79.923000
42.901064	3.596807	79.970000
42.926585	3.601341	80.016000
42.951579	3.606426	80.062000
42.976063	3.609544	80.109000
43.001007	3.615645	80.154000
43.026551	3.620169	80.200000
43.050738	3.626905	80.248000
43.076412	3.631819	80.293000
43.101434	3.637690	80.339000
43.125806	3.642474	80.385000
43.152164	3.649241	80.432000
43.177761	3.655231	80.479000
43.202283	3.660983	80.525000
43.226055	3.669879	80.571000
43.310635	3.674657	80.617000
43.396774	3.699428	80.772000
43.421519	3.703664	80.930000
43.446621	3.708601	80.976000
43.472241	3.714664	81.023000
43.497854	3.720105	81.070000
43.522222	3.724792	81.115000
43.546625	3.731094	81.163000
43.572318	3.734885	81.209000
43.597239	3.741563	81.255000
43.622626	3.745016	81.302000
43.647881	3.750938	81.348000
43.673375	3.755515	81.395000
43.697885	3.759657	81.441000
43.723298	3.764160	81.487000
43.748657	3.769572	81.533000
43.773068	3.774679	81.580000
43.797685	3.778232	81.625000
43.822687	3.784613	81.672000
43.906975	3.788471	81.718000
43.992484	3.811093	81.873000
44.016933	3.812308	82.030000
44.041735	3.815560	82.076000
44.067209	3.817679	82.123000
44.091585	3.821422	82.169000
44.116864	3.822987	82.215000
44.142995	3.827274	82.262000
44.168112	3.829452	82.308000
44.192373	3.832081	82.354000
44.218243	3.833919	82.401000
44.242703	3.838003	82.447000
44.266830	3.839861	82.492000
44.291920	3.843229	82.538000
44.316964	3.846153	82.585000
44.341267	3.848161	82.629000
44.366714	3.851229	82.675000
44.391793	3.853698	82.721000
44.416188	3.858137	82.767000
44.499438	3.858365	82.813000
44.703703	3.892566	82.968000
44.727691	3.895093	83.342000
44.752693	3.899301	83.388000
44.776619	3.900648	83.434000
44.801533	3.900963	83.481000
44.826996	3.899522	83.526000
44.852324	3.900883	83.572000
44.877238	3.900598	83.619000
44.902574	3.903956	83.665000
44.928206	3.905333	83.712000
44.953404	3.908711	83.758000
44.977645	3.911478	83.805000
45.003500	3.914996	83.851000
45.207573	3.916462	83.898000
45.232179	3.951635	84.272000
45.256866	3.956319	84.318000
45.281910	3.962449	84.364000
45.305917	3.963846	84.410000
45.331211	3.968861	84.456000
45.356263	3.971234	84.501000
45.381150	3.974381	84.548000
45.406155	3.979085	84.594000
45.432045	3.983215	84.640000
45.457166	3.988960	84.687000
45.480739	3.993544	84.733000
45.506386	3.998973	84.779000
45.531046	4.003042	84.825000
45.556444	4.008422	84.871000
45.581649	4.010894	84.918000
45.607404	4.015439	84.965000
45.690812	4.017306	85.011000
45.780328	4.038205	85.165000
45.805223	4.039280	85.331000
45.830278	4.043845	85.377000
45.856168	4.046948	85.423000
45.880325	4.053595	85.469000
45.905173	4.056362	85.515000
45.930167	4.059384	85.562000
45.955050	4.061596	85.608000
45.980597	4.063383	85.654000
46.006045	4.065980	85.701000
46.031439	4.067687	85.747000
46.056149	4.072806	85.794000
46.081727	4.074203	85.840000
46.106737	4.078222	85.887000
46.130137	4.080855	85.933000
46.155726	4.087054	85.979000
46.181036	4.091120	86.024000
46.206092	4.097514	86.071000
46.290517	4.101326	86.118000
46.376288	4.118676	86.272000
46.401428	4.119690	86.431000
46.426011	4.123638	86.477000
46.450195	4.126786	86.523000
46.475773	4.130694	86.569000
46.500829	4.133223	86.616000
46.525547	4.136776	86.662000
46.551340	4.140048	86.708000
46.577149	4.143722	86.755000
46.602504	4.147575	86.801000
46.627283	4.151518	86.848000
46.652516	4.157090	86.894000
46.678497	4.159968	86.941000
46.701540	4.165669	86.987000
46.727318	4.170317	87.033000
46.752040	4.178992	87.079000
46.776838	4.184783	87.126000
46.802662	4.190625	87.172000
46.886661	4.196592	87.217000
46.971971	4.238469	87.373000
46.996070	4.244341	87.530000
47.021318	4.251327	87.577000
47.046646	4.257336	87.623000
47.071710	4.261765	87.669000
47.096577	4.264312	87.715000
47.122071	4.267687	87.761000
47.147795	4.269355	87.808000
47.172321	4.268871	87.854000
47.196531	4.269139	87.900000
47.221983	4.266293	87.946000
47.246408	4.263178	87.992000
47.271602	4.258531	88.038000
47.297188	4.252975	88.085000
47.322774	4.245375	88.131000
47.347108	4.237423	88.177000
47.372463	4.228534	88.224000
47.397746	4.218863	88.270000
47.480201	4.209945	88.316000
47.682226	4.047207	88.470000
47.706697	4.021825	88.843000
47.731868	3.994785	88.889000
47.757827	3.964586	88.935000
47.783259	3.932813	88.982000
47.808069	3.899587	89.028000
47.833413	3.865852	89.074000
47.858592	3.830932	89.120000
47.882814	3.796686	89.167000
47.908473	3.764165	89.213000
47.932802	3.732877	89.260000
47.957359	3.703318	89.306000
47.982368	3.673867	89.351000
48.185907	3.648039	89.397000
48.210502	3.508095	89.772000
48.235058	3.500073	89.819000
48.261020	3.493337	89.865000
48.285992	3.489578	89.911000
48.311009	3.486665	89.958000
48.336960	3.485820	90.004000
48.362357	3.485469	90.051000
48.386710	3.486080	90.097000
48.412077	3.486320	90.144000
48.437271	3.487762	90.190000
48.461098	3.492091	90.236000
48.486153	3.495249	90.282000
48.511778	3.498576	90.328000
48.537045	3.501914	90.374000
48.561993	3.506064	90.421000
48.587417	3.509972	90.467000
48.670990	3.515513	90.514000
48.759492	3.541185	90.668000
48.784421	3.544463	90.830000
48.808382	3.548612	90.877000
48.833787	3.551869	90.923000
48.859193	3.554252	90.969000
48.883277	3.557505	91.015000
48.909220	3.558772	91.062000
48.934226	3.560638	91.108000
48.959400	3.562190	91.154000
48.984233	3.562671	91.200000
49.009869	3.562179	91.246000
49.034007	3.561414	91.292000
49.058190	3.561053	91.339000
49.084360	3.558751	91.385000
49.109174	3.558882	91.432000
49.134479	3.562210	91.478000
49.159201	3.562900	91.524000
49.185160	3.566419	91.570000
49.267753	3.570258	91.615000
49.354303	3.595791	91.771000
49.378775	3.602126	91.931000
49.404384	3.607562	91.976000
49.430139	3.613592	92.023000
49.454457	3.620158	92.069000
49.480604	3.627415	92.115000
49.505387	3.634151	92.162000
49.529855	3.641438	92.207000
49.554446	3.649881	92.253000
49.579359	3.659248	92.300000
49.604400	3.666814	92.346000
49.629183	3.676433	92.392000
49.654911	3.685788	92.439000
49.680051	3.695554	92.485000
49.705187	3.705287	92.531000
49.730938	3.712968	92.578000
49.755890	3.723397	92.624000
49.780981	3.731503	92.670000
49.863847	3.741503	92.716000
49.950051	3.795597	92.871000
49.975407	3.806016	93.030000
50.000601	3.813012	93.077000
50.025445	3.823311	93.123000
50.051312	3.832530	93.169000
50.076778	3.841026	93.216000
50.100663	3.849326	93.263000
50.125953	3.857497	93.309000
50.150317	3.865013	93.355000
50.175442	3.873937	93.400000
50.200974	3.880625	93.447000
50.226341	3.886790	93.494000
50.251696	3.894568	93.540000
50.276295	3.902300	93.587000
50.302365	3.909876	93.633000
50.327163	3.916322	93.679000
50.351566	3.924320	93.725000
50.376902	3.929780	93.772000
50.460387	3.933218	93.818000
50.660810	3.939709	93.973000
50.686023	3.942646	94.343000
50.710925	3.944738	94.389000
50.736215	3.945854	94.435000
50.761459	3.947561	94.481000
50.786565	3.949067	94.528000
50.810940	3.951614	94.574000
50.836415	3.955873	94.621000
50.861025	3.958546	94.666000
50.886465	3.960647	94.713000
50.912189	3.962590	94.760000
50.937245	3.966983	94.806000
50.962028	3.968460	94.852000
51.164141	3.970852	94.899000
51.189404	3.994649	95.272000
51.214130	3.996971	95.319000
51.239266	3.997927	95.364000
51.265033	3.999003	95.411000
51.289762	3.998753	95.456000
51.313753	3.998347	95.503000
51.338725	3.997111	95.548000
51.364115	3.996971	95.595000
51.388629	3.998528	95.641000
51.414284	4.000519	95.687000
51.439416	4.000269	95.733000
51.464099	4.000189	95.780000
51.489674	4.001876	95.826000
51.515456	4.002066	95.873000
51.539808	4.002531	95.918000
51.563347	4.001835	95.964000
51.647934	4.002462	96.011000
51.737100	3.999999	96.165000
51.762141	4.000899	96.330000
51.787177	4.001947	96.377000
51.811768	4.001396	96.423000
51.838234	4.003252	96.469000
51.863313	4.003527	96.516000
51.888276	4.002401	96.562000
51.913136	4.002381	96.608000
51.938265	4.002301	96.654000
51.961707	4.001655	96.700000
51.987193	3.999063	96.746000
52.012733	3.998318	96.792000
52.037089	3.997021	96.838000
52.062602	3.994369	96.885000
52.088142	3.992377	96.931000
52.113536	3.989685	96.977000
52.137892	3.989445	97.024000
52.162230	3.987903	97.070000
52.246283	3.985886	97.116000
52.333214	3.974366	97.271000
52.357758	3.973490	97.431000
52.383383	3.972264	97.477000
52.409065	3.970397	97.524000
52.434147	3.966979	97.570000
52.458661	3.963941	97.615000
52.484067	3.961158	97.662000
52.508688	3.958451	97.709000
52.533690	3.956049	97.755000
52.559660	3.953476	97.801000
52.584655	3.951074	97.847000
52.609553	3.948872	97.894000
52.634678	3.946550	97.939000
52.660391	3.941556	97.986000
52.685819	3.938478	98.032000
52.710122	3.934339	98.079000
52.734874	3.930095	98.125000
52.759795	3.926537	98.172000
52.844283	3.924540	98.218000
52.929392	3.912549	98.373000
52.954913	3.910782	98.531000
52.980599	3.910076	98.578000
53.005827	3.909646	98.624000
53.029723	3.908069	98.671000
53.055712	3.906519	98.716000
53.079903	3.902820	98.762000
53.104663	3.901814	98.809000
53.130768	3.899221	98.855000
53.155405	3.895803	98.902000
53.180899	3.890418	98.947000
53.205828	3.884587	98.994000
53.231759	3.879559	99.040000
53.256143	3.874636	99.087000
53.280461	3.870344	99.133000
53.305739	3.865757	99.180000
53.330968	3.861718	99.225000
53.355905	3.856282	99.272000
53.440173	3.853209	99.319000
53.639962	3.807998	99.473000
53.666067	3.803907	99.843000
53.690811	3.799400	99.889000
53.715456	3.795001	99.936000
53.740335	3.791039	99.982000
53.765425	3.788501	100.028000
53.789401	3.784707	100.073000
53.814734	3.782328	100.120000
53.840696	3.779755	100.166000
53.866082	3.776777	100.213000
53.890573	3.773713	100.259000
53.915863	3.773034	100.305000
53.940101	3.770936	100.350000
54.143332	3.768186	100.396000
54.168810	3.768976	100.772000
54.194296	3.772260	100.818000
54.219068	3.776003	100.865000
54.244247	3.780630	100.911000
54.269633	3.785097	100.958000
54.293517	3.791589	101.004000
54.318711	3.797400	101.051000
54.343544	3.803092	101.097000
54.369230	3.809004	101.143000
54.394128	3.815095	101.189000
54.419894	3.820408	101.236000
54.445027	3.827723	101.282000
54.469825	3.835923	101.328000
54.493955	3.842999	101.374000
54.519944	3.850690	101.421000
54.544086	3.858117	101.466000
54.628796	3.865997	101.513000
54.716503	3.905577	101.667000
54.742035	3.913414	101.831000
54.767705	3.919044	101.877000
54.792365	3.924714	101.923000
54.818301	3.930675	101.970000
54.843441	3.935840	102.016000
54.868182	3.940504	102.063000
54.892177	3.946063	102.109000
54.917083	3.950448	102.155000
54.942792	3.956588	102.201000
54.967356	3.960087	102.248000
54.993368	3.965672	102.295000
55.018351	3.972609	102.341000
55.043015	3.979575	102.387000
55.068547	3.985070	102.433000
55.093837	3.988749	102.480000
55.118094	3.991321	102.526000
55.142197	3.994099	102.572000
55.227564	3.997526	102.618000
55.312454	4.032184	102.772000
55.338202	4.036838	102.931000
55.362747	4.039030	102.977000
55.388037	4.041903	103.024000
55.413300	4.044620	103.070000
55.437268	4.048959	103.116000
55.462113	4.051082	103.163000
55.488029	4.055685	103.209000
55.513342	4.058057	103.255000
55.538152	4.061325	103.301000
55.563216	4.063092	103.347000
55.588832	4.066681	103.394000
55.613231	4.069558	103.440000
55.638152	4.072210	103.486000
55.662743	4.074873	103.532000
55.688160	4.077084	103.579000
55.712993	4.080343	103.625000
55.739109	4.082986	103.672000
55.822828	4.085799	103.718000
55.908191	4.086538	103.873000
55.932913	4.086187	104.031000
55.957750	4.085961	104.077000
55.982663	4.083141	104.123000
56.007688	4.083231	104.170000
56.033443	4.082245	104.216000
56.058975	4.081364	104.263000
56.084619	4.077746	104.309000
56.109590	4.075864	104.356000
56.134550	4.076104	104.402000
56.160151	4.073462	104.448000
56.183685	4.072535	104.494000
56.208553	4.070659	104.540000
56.234266	4.069133	104.586000
56.258549	4.066235	104.631000
56.283985	4.066085	104.679000
56.309479	4.064999	104.725000
56.334838	4.063682	104.771000
56.418000	4.063137	104.817000
56.619061	4.071489	104.972000
56.643210	4.071890	105.343000
56.668638	4.074072	105.389000
56.693352	4.076474	105.435000
56.718100	4.078857	105.481000
56.743894	4.078261	105.528000
56.769618	4.080303	105.574000
56.794359	4.081979	105.621000
56.820137	4.083741	105.667000
56.845661	4.082315	105.713000
56.870448	4.082300	105.760000
56.894363	4.079912	105.807000
56.919357	4.077841	105.853000
57.122750	4.076143	105.898000
57.146991	4.068267	106.272000
57.172273	4.069683	106.318000
57.197106	4.072577	106.364000
57.221686	4.075494	106.410000
57.246580	4.079473	106.455000
57.272066	4.081604	106.502000
57.296884	4.085233	106.549000
57.322193	4.089960	106.595000
57.347802	4.092718	106.641000
57.372059	4.094958	106.688000
57.396715	4.096143	106.734000
57.421890	4.101280	106.780000
57.447199	4.103953	106.826000
57.472324	4.107925	106.873000
57.497810	4.111933	106.920000
57.523549	4.116336	106.966000
57.607311	4.121438	107.013000
57.695378	4.148392	107.167000
57.719950	4.152156	107.330000
57.745505	4.155799	107.377000
57.770465	4.159613	107.422000
57.794553	4.164159	107.469000
57.820204	4.169841	107.515000
57.845686	4.176787	107.562000
57.870500	4.183538	107.609000
57.896197	4.190478	107.655000
57.921964	4.196746	107.702000
57.946666	4.204052	107.748000
57.971622	4.211438	107.794000
57.997062	4.220763	107.840000
58.021975	4.228933	107.886000
58.045702	4.237411	107.933000
58.071253	4.245474	107.979000
58.096920	4.253634	108.025000
58.121956	4.262538	108.072000
58.206128	4.271678	108.119000
58.291054	4.315346	108.273000
58.316348	4.324009	108.431000
58.340497	4.328493	108.477000
58.365360	4.334323	108.523000
58.391277	4.339568	108.569000
58.416909	4.344948	108.616000
58.441430	4.346775	108.662000
58.466544	4.350538	108.709000
58.492456	4.353311	108.755000
58.517370	4.356294	108.801000
58.541377	4.358686	108.847000
58.566141	4.360918	108.893000
58.591619	4.363020	108.939000
58.615780	4.365011	108.985000
58.642215	4.368290	109.032000
58.667512	4.371688	109.079000
58.692046	4.376903	109.124000
58.717028	4.378984	109.170000
58.799595	4.383619	109.217000
58.886541	4.397141	109.371000
58.910698	4.400559	109.530000
58.936061	4.403917	109.577000
58.961773	4.409182	109.623000
58.987279	4.410559	109.668000
59.011754	4.412916	109.715000
59.036337	4.415383	109.760000
59.061401	4.419742	109.806000
59.085408	4.422134	109.853000
59.110540	4.425402	109.899000
59.136380	4.428860	109.946000
59.161666	4.431112	109.992000
59.187033	4.433354	110.039000
59.212300	4.436982	110.085000
59.237271	4.438610	110.131000
59.261820	4.442593	110.177000
59.287306	4.445982	110.224000
59.312658	4.448984	110.270000
59.395996	4.450401	110.316000
59.597091	4.476000	110.471000
59.621867	4.477276	110.843000
59.647030	4.478837	110.889000
59.672651	4.480023	110.936000
59.697914	4.483227	110.982000
59.722382	4.485488	111.028000
59.748467	4.487630	111.074000
59.772393	4.489503	111.120000
59.797015	4.492715	111.166000
59.822424	4.494948	111.213000
59.846777	4.498245	111.258000
59.872405	4.499341	111.305000
59.897326	4.503375	111.351000
60.100373	4.506418	111.398000
60.124853	4.536329	111.772000
60.149955	4.539183	111.819000
60.175990	4.545255	111.865000
60.200531	4.551117	111.912000
60.225690	4.555944	111.958000
60.250946	4.560712	112.004000
60.277458	4.566962	112.051000
60.301599	4.571629	112.097000
60.326201	4.575918	112.143000
60.351426	4.580755	112.189000
60.375917	4.585851	112.236000
60.400988	4.592679	112.282000
60.426728	4.598689	112.328000
60.452018	4.605885	112.374000
60.476863	4.611797	112.421000
60.501868	4.618639	112.468000
60.584343	4.624160	112.513000
60.673705	4.661744	112.668000
60.698058	4.668006	112.831000
60.722483	4.671369	112.877000
60.748269	4.673868	112.923000
60.773851	4.678465	112.969000
60.798434	4.684436	113.016000
60.824086	4.687630	113.062000
60.849652	4.691353	113.108000
60.874635	4.696000	113.155000
60.900040	4.700848	113.202000
60.924923	4.706008	113.247000
60.948492	4.712719	113.294000
60.973663	4.719277	113.340000
60.998807	4.724788	113.385000
61.024201	4.731160	113.431000
61.049441	4.737411	113.478000
61.074205	4.743121	113.525000
61.100252	4.750327	113.571000
61.183053	4.758139	113.618000
61.268497	4.814562	113.772000
61.294083	4.823526	113.931000
61.319595	4.832934	113.977000
61.344905	4.840812	114.024000
61.369411	4.849820	114.069000
61.394955	4.856561	114.115000
61.418793	4.864293	114.161000
61.442646	4.871419	114.206000
61.468512	4.881099	114.253000
61.493718	4.891908	114.299000
61.518751	4.902158	114.345000
61.543680	4.913518	114.391000
61.569558	4.926325	114.438000
61.594333	4.936304	114.484000
61.618851	4.944720	114.530000
61.643795	4.951678	114.575000
61.667418	4.959718	114.621000
61.692608	4.968632	114.668000
61.777629	4.978846	114.713000
61.864821	5.024116	114.868000
61.890411	5.030707	115.031000
61.916131	5.036618	115.077000
61.940626	5.042895	115.123000
61.966381	5.048991	115.170000
61.990442	5.054943	115.216000
62.014868	5.059821	115.262000
62.040795	5.064428	115.308000
62.065544	5.070200	115.354000
62.090630	5.073822	115.401000
62.115698	5.078239	115.448000
62.141468	5.081258	115.495000
62.166823	5.086175	115.540000
62.191472	5.089488	115.587000
62.216543	5.094086	115.633000
62.240738	5.095955	115.679000
62.265844	5.099938	115.724000
62.291453	5.101211	115.771000
62.374811	5.102830	115.817000
62.576156	5.118836	115.972000
62.601054	5.119091	116.343000
62.626428	5.118428	116.389000
62.651526	5.118077	116.436000
62.677327	5.118407	116.482000
62.701573	5.119241	116.529000
62.725580	5.118557	116.575000
62.750751	5.119301	116.621000
62.775883	5.117483	116.666000
62.801162	5.117602	116.712000
62.826832	5.119161	116.759000
62.852234	5.120030	116.805000
62.876371	5.120345	116.851000
63.079441	5.119832	116.898000
63.104635	5.121605	117.272000
63.129514	5.122554	117.319000
63.154662	5.122493	117.365000
63.180260	5.123099	117.412000
63.206003	5.120460	117.458000
63.229660	5.119746	117.505000
63.255100	5.119195	117.552000
63.280360	5.117157	117.598000
63.304974	5.116917	117.644000
63.331259	5.116323	117.691000
63.356003	5.114728	117.737000
63.381240	5.113039	117.783000
63.406749	5.113794	117.830000
63.431981	5.113384	117.876000
63.456710	5.112910	117.922000
63.480502	5.111895	117.968000
63.565089	5.108786	118.015000
63.652035	5.112545	118.170000
63.677733	5.113013	118.331000
63.702646	5.114783	118.377000
63.727675	5.118076	118.424000
63.753407	5.121144	118.470000
63.778451	5.123334	118.517000
63.803622	5.125831	118.562000
63.828471	5.129155	118.609000
63.853691	5.131254	118.655000
63.877871	5.132298	118.702000
63.903211	5.134797	118.748000
63.928548	5.136735	118.794000
63.953415	5.142104	118.841000
63.978878	5.148929	118.886000
64.003991	5.155404	118.933000
64.029374	5.164063	118.979000
64.053477	5.170830	119.025000
64.078390	5.176852	119.071000
64.161740	5.183252	119.118000
64.248214	5.225121	119.272000
64.273058	5.230841	119.431000
64.298333	5.237743	119.478000
64.324365	5.242157	119.524000
64.349605	5.247927	119.571000
64.373612	5.252952	119.616000
64.398395	5.257686	119.663000
64.422878	5.262150	119.708000
64.448080	5.266629	119.754000
64.473262	5.272509	119.800000
64.498902	5.278450	119.846000
64.523435	5.285097	119.892000
64.548291	5.291857	119.938000
64.573408	5.299198	119.985000
64.597535	5.303608	120.031000
64.622898	5.309279	120.077000
64.647761	5.316105	120.123000
64.673578	5.322296	120.169000
64.757066	5.326889	120.215000
64.844450	5.352202	120.370000
64.869752	5.356848	120.531000
64.894669	5.364144	120.578000
64.919395	5.370239	120.624000
64.943659	5.374231	120.671000
64.969721	5.379072	120.716000
64.993955	5.384040	120.763000
65.019456	5.388485	120.809000
65.044842	5.393717	120.855000
65.070152	5.400319	120.902000
65.095645	5.405711	120.948000
65.120716	5.409958	120.994000
65.146164	5.415316	121.041000
65.170198	5.420948	121.088000
65.194762	5.426639	121.133000
65.220402	5.433110	121.179000
65.245703	5.439476	121.226000
65.270782	5.446702	121.271000
65.354463	5.452805	121.319000
65.555055	5.495423	121.473000
65.580687	5.501345	121.843000
65.605028	5.506758	121.890000
65.629238	5.512719	121.936000
65.654217	5.517067	121.982000
65.680279	5.520930	122.029000
65.704867	5.525298	122.075000
65.730322	5.530255	122.121000
65.755339	5.534993	122.167000
65.780725	5.538405	122.214000
65.804982	5.541084	122.259000
65.830553	5.543966	122.306000
65.854963	5.548279	122.352000
66.058067	5.552397	122.398000
66.083891	5.607048	122.773000
66.108778	5.612378	122.819000
66.133265	5.620860	122.865000
66.157622	5.627987	122.911000
66.182847	5.633327	122.958000
66.207902	5.638923	123.004000
66.232551	5.646324	123.050000
66.258360	5.652254	123.096000
66.283292	5.657769	123.141000
66.307388	5.664465	123.186000
66.331952	5.670036	123.232000
66.356224	5.676777	123.278000
66.381064	5.681222	123.323000
66.406512	5.686822	123.369000
66.431660	5.691916	123.415000
66.456416	5.700699	123.462000
66.540550	5.707070	123.508000
66.631123	5.751711	123.663000
66.656616	5.761120	123.831000
66.682102	5.771254	123.877000
66.706835	5.781474	123.924000
66.732268	5.791698	123.970000
66.757515	5.799047	124.016000
66.781956	5.807978	124.064000
66.805937	5.816673	124.110000
66.831645	5.825480	124.156000
66.857354	5.837222	124.202000
66.881642	5.847951	124.247000
66.907151	5.859320	124.294000
66.933059	5.868426	124.341000
66.958069	5.876995	124.387000
66.982764	5.883662	124.433000
67.008319	5.892715	124.480000
67.032199	5.897453	124.527000
67.057055	5.901800	124.573000
67.142149	5.904474	124.619000
67.227259	5.932532	124.773000
67.252445	5.937490	124.931000
67.276110	5.941492	124.977000
67.301412	5.948658	125.023000
67.326775	5.955265	125.069000
67.351293	5.958648	125.116000
67.376694	5.962740	125.162000
67.402649	5.969227	125.209000
67.428181	5.975138	125.255000
67.452876	5.980959	125.302000
67.478592	5.986702	125.347000
67.503233	5.993477	125.394000
67.527651	5.997561	125.441000
67.554021	6.002912	125.487000
67.578600	6.009614	125.533000
67.603187	6.016166	125.580000
67.628474	6.022657	125.626000
67.654090	6.030729	125.673000
67.737463	6.037636	125.718000
67.823065	6.068189	125.873000
67.847928	6.074984	126.031000
67.873107	6.082351	126.078000
67.898501	6.088113	126.123000
67.922888	6.092496	126.169000
67.948182	6.097501	126.215000
67.974267	6.101309	126.262000
67.999554	6.104707	126.309000
68.023833	6.107736	126.355000
68.049150	6.113260	126.402000
68.073346	6.119362	126.448000
68.098102	6.125581	126.494000
68.123849	6.130597	126.540000
68.149396	6.138237	126.587000
68.174114	6.148378	126.633000
68.199785	6.159213	126.679000
68.225301	6.172060	126.726000
68.250695	6.185802	126.772000
68.333338	6.201292	126.818000
68.533838	6.340470	126.973000
68.558225	6.354820	127.343000
68.583696	6.370176	127.389000
68.608521	6.385478	127.435000
68.633470	6.401114	127.481000
68.659716	6.416530	127.528000
68.685056	6.429609	127.574000
68.709305	6.444401	127.620000
68.734814	6.456502	127.667000
68.760216	6.469379	127.714000
68.784142	6.479514	127.760000
68.808645	6.491625	127.806000
68.834799	6.504146	127.852000
69.037189	6.519701	127.898000
69.061177	6.622815	128.272000
69.086563	6.636457	128.319000
69.111465	6.650414	128.365000
69.136920	6.661658	128.411000
69.162767	6.670412	128.458000
69.187693	6.679491	128.504000
69.212987	6.688047	128.550000
69.238035	6.697377	128.596000
69.263029	6.707408	128.643000
69.287493	6.717052	128.689000
69.312318	6.725976	128.735000
69.337920	6.734796	128.782000
69.363659	6.742958	128.829000
69.388292	6.753541	128.875000
69.414032	6.762365	128.922000
69.439226	6.770836	128.969000
69.523083	6.779586	129.015000
69.611243	6.839752	129.170000
69.635607	6.848801	129.331000
69.661063	6.859846	129.377000
69.686126	6.869823	129.424000
69.710483	6.880478	129.471000
69.736514	6.891678	129.517000
69.761639	6.902303	129.564000
69.786311	6.914174	129.610000
69.811151	6.926455	129.656000
69.837167	6.938651	129.702000
69.862123	6.952068	129.749000
69.886196	6.966172	129.794000
69.910798	6.979615	129.840000
69.935815	6.991486	129.887000
69.960986	7.003381	129.932000
69.986242	7.017260	129.979000
70.011889	7.029776	130.025000
70.036745	7.042272	130.072000
70.121747	7.054854	130.118000
70.206043	7.122827	130.273000
70.231183	7.133256	130.432000
70.256262	7.143966	130.478000
70.281663	7.154244	130.524000
70.306903	7.165553	130.571000
70.332297	7.177660	130.617000
70.356777	7.186885	130.663000
70.382147	7.198361	130.710000
70.407472	7.208720	130.755000
70.432336	7.219932	130.802000
70.456247	7.233160	130.848000
70.481825	7.247961	130.894000
70.506927	7.259435	130.939000
70.531813	7.271562	130.986000
70.557522	7.284880	131.033000
70.582916	7.296535	131.079000
70.608179	7.309555	131.126000
70.633066	7.319604	131.172000
70.715871	7.328462	131.218000
70.802064	7.387065	131.374000
70.826589	7.401064	131.531000
70.851968	7.414911	131.577000
70.877653	7.429380	131.624000
70.902694	7.443259	131.670000
70.927473	7.457776	131.716000
70.952805	7.470703	131.762000
70.977500	7.483410	131.809000
71.002225	7.496132	131.855000
71.027535	7.511689	131.902000
71.052951	7.526675	131.949000
71.078845	7.539554	131.995000
71.103370	7.553386	132.041000
71.129410	7.566114	132.088000
71.154342	7.578237	132.134000
71.178883	7.588546	132.180000
71.203217	7.600669	132.226000
71.228711	7.612796	132.273000
71.311692	7.625125	132.319000
71.512476	7.745122	132.474000
71.537370	7.756622	132.843000
71.562818	7.770956	132.889000
71.588158	7.781430	132.936000
71.613329	7.793512	132.982000
71.638200	7.803371	133.029000
71.664124	7.811014	133.075000
71.688220	7.820211	133.121000
71.713245	7.831032	133.168000
71.738247	7.842237	133.214000
71.763733	7.852181	133.261000
71.788420	7.862866	133.307000
71.813406	7.871769	133.353000
72.015704	7.881783	133.398000
72.040506	7.981424	133.773000
72.066100	7.995586	133.819000
72.091601	8.009343	133.866000
72.116711	8.024271	133.912000
72.142058	8.039971	133.959000
72.167337	8.055682	134.005000
72.192416	8.070244	134.051000
72.216296	8.084496	134.098000
72.241966	8.098748	134.144000
72.266592	8.113825	134.190000
72.291939	8.127496	134.236000
72.316772	8.141709	134.283000
72.342758	8.154726	134.330000
72.368536	8.168578	134.376000
72.393184	8.182750	134.422000
72.418755	8.199496	134.469000
72.501429	8.219060	134.515000
72.589389	8.351755	134.670000
72.613838	8.373554	134.831000
72.638686	8.394292	134.877000
72.664049	8.410853	134.923000
72.689090	8.426574	134.970000
72.713969	8.444528	135.015000
72.739332	8.461282	135.061000
72.764288	8.479079	135.107000
72.788022	8.498683	135.153000
72.813638	8.518915	135.199000
72.838710	8.538441	135.245000
72.862843	8.557300	135.292000
72.888629	8.575115	135.338000
72.914246	8.590102	135.384000
72.939578	8.608578	135.431000
72.964173	8.627697	135.477000
72.989382	8.649882	135.523000
73.014814	8.673148	135.570000
73.098349	8.697120	135.616000
73.184657	8.842593	135.771000
73.209721	8.872998	135.931000
73.236213	8.904891	135.978000
73.260470	8.936714	136.024000
73.285572	8.969038	136.070000
73.311327	9.001156	136.116000
73.335553	9.035358	136.162000
73.360124	9.065997	136.208000
73.385549	9.097280	136.255000
73.410820	9.129040	136.301000
73.435499	9.157516	136.348000
73.460355	9.187059	136.393000
73.486225	9.215669	136.440000
73.510997	9.243336	136.485000
73.535476	9.273043	136.532000
73.560355	9.303394	136.578000
73.585165	9.331945	136.624000
73.610236	9.360882	136.670000
73.694785	9.390320	136.717000
73.780717	9.520522	136.873000
73.806349	9.541077	137.031000
73.832011	9.563332	137.078000
73.855976	9.584622	137.124000
73.880824	9.606536	137.170000
73.904405	9.630049	137.216000
73.929998	9.653835	137.261000
73.955231	9.677537	137.307000
73.980456	9.705076	137.353000
74.005734	9.734165	137.399000
74.030552	9.764216	137.445000
74.056315	9.795184	137.492000
74.079903	9.826931	137.538000
74.104252	9.860285	137.584000
74.130153	9.892200	137.630000
74.154701	9.923245	137.677000
74.180034	9.952492	137.723000
74.205573	9.982013	137.769000
74.289308	10.010094	137.816000
74.491459	10.337490	137.970000
74.516554	10.373282	138.344000
74.541586	10.410427	138.389000
74.566304	10.445098	138.436000
74.591483	10.479325	138.482000
74.615532	10.511136	138.528000
74.641210	10.545021	138.574000
74.666488	10.579698	138.621000
74.691544	10.614761	138.667000
74.716623	10.648817	138.713000
74.742117	10.683313	138.759000
74.767618	10.719541	138.806000
74.791713	10.756972	138.852000
74.994687	10.795692	138.898000
75.019866	11.118746	139.272000
75.044791	11.157711	139.319000
75.070692	11.195588	139.365000
75.096140	11.231180	139.412000
75.120942	11.265701	139.458000
75.144991	11.301085	139.504000
75.171414	11.335886	139.551000
75.196255	11.371845	139.597000
75.220827	11.407859	139.643000
75.247081	11.443279	139.690000
75.272175	11.474831	139.736000
75.296954	11.504549	139.782000
75.321787	11.532635	139.828000
75.346774	11.561126	139.874000
75.370547	11.591456	139.921000
75.395318	11.622075	139.966000
75.480005	11.655325	140.012000
75.568488	11.882203	140.166000
75.593613	11.922708	140.331000
75.618922	11.964225	140.378000
75.644154	12.006542	140.423000
75.669333	12.051614	140.469000
75.693767	12.096624	140.515000
75.718077	12.143223	140.562000
75.742956	12.185901	140.608000
75.768688	12.229840	140.655000
75.793859	12.271444	140.701000
75.819491	12.313865	140.748000
75.844631	12.356798	140.794000
75.869618	12.397920	140.840000
75.894228	12.439586	140.886000
75.919822	12.480820	140.932000
75.944193	12.522934	140.978000
75.968335	12.565952	141.024000
75.994190	12.611399	141.071000
76.077647	12.656582	141.116000
76.164985	12.960687	141.271000
76.189664	13.016458	141.432000
76.214859	13.075997	141.479000
76.240844	13.135328	141.525000
76.264632	13.195305	141.571000
76.289027	13.254680	141.616000
76.315435	13.319868	141.664000
76.340422	13.385370	141.709000
76.364817	13.448319	141.756000
76.390625	13.510218	141.802000
76.415935	13.571786	141.849000
76.440760	13.632352	141.895000
76.465977	13.690224	141.941000
76.490211	13.749415	141.986000
76.513553	13.807545	142.032000
76.538785	13.869910	142.077000
76.564433	13.929802	142.123000
76.589273	13.988573	142.169000
76.673300	14.050134	142.215000
76.759954	14.432002	142.370000
76.784057	14.496860	142.530000
76.809527	14.563912	142.577000
76.834130	14.635708	142.623000
76.859162	14.711042	142.670000
76.884910	14.788867	142.715000
76.909773	14.870135	142.761000
76.934675	14.951674	142.807000
76.959524	15.029678	142.852000
76.983043	15.103865	142.897000
77.007507	15.174515	142.943000
77.032570	15.245524	142.989000
77.058248	15.318467	143.034000
77.083012	15.390602	143.081000
77.108345	15.462761	143.127000
77.133531	15.535725	143.173000
77.157980	15.612209	143.220000
77.182482	15.688396	143.265000
77.265433	15.762794	143.311000
77.470766	16.509028	143.465000
77.495767	16.580205	143.844000
77.520954	16.648889	143.890000
77.545656	16.708442	143.937000
77.571073	16.762057	143.982000
77.596536	16.817108	144.029000
77.621338	16.873548	144.076000
77.647116	16.938282	144.122000
77.672118	17.008150	144.168000
77.697681	17.078801	144.215000
77.721661	17.149548	144.260000
77.747593	17.219899	144.307000
77.771596	17.293277	144.354000
77.973778	17.370102	144.400000
77.999126	18.017993	144.772000
78.023652	18.110101	144.818000
78.048139	18.201255	144.865000
78.073364	18.292516	144.911000
78.099049	18.387174	144.957000
78.123421	18.480647	145.003000
78.148546	18.569109	145.049000
78.174324	18.654704	145.095000
78.199856	18.741679	145.142000
78.223744	18.827335	145.187000
78.248731	18.910684	145.233000
78.273856	18.992260	145.280000
78.298228	19.066454	145.326000
78.323691	19.132344	145.372000
78.348570	19.199497	145.418000
78.373495	19.269912	145.464000
78.458405	19.338707	145.511000
78.547164	19.751562	145.665000
78.573049	19.828536	145.831000
78.598512	19.913515	145.878000
78.622423	20.003641	145.924000
78.647810	20.094237	145.971000
78.672589	20.184524	146.017000
78.697475	20.274909	146.063000
78.722493	20.365129	146.109000
78.748125	20.456327	146.155000
78.773042	20.549273	146.202000
78.798236	20.645437	146.248000
78.823461	20.748118	146.294000
78.849162	20.848841	146.340000
78.873250	20.950319	146.387000
78.898236	21.049315	146.433000
78.923446	21.148244	146.480000
78.948018	21.245008	146.526000
78.973504	21.337118	146.572000
79.058244	21.422111	146.618000
79.143362	21.861448	146.774000
79.168133	21.943978	146.931000
79.192628	22.035744	146.978000
79.218237	22.129413	147.024000
79.243454	22.229205	147.070000
79.267972	22.335126	147.117000
79.293105	22.440791	147.162000
79.318952	22.549699	147.209000
79.344315	22.659803	147.255000
79.368741	22.764982	147.301000
79.394127	22.862761	147.348000
79.418422	22.958315	147.394000
79.442924	23.056693	147.440000
79.468418	23.155102	147.486000
79.493597	23.254205	147.532000
79.518699	23.357006	147.578000
79.543831	23.461846	147.625000
79.569179	23.573345	147.671000
79.651277	23.687879	147.716000
79.737877	24.416841	147.870000
79.763055	24.546085	148.031000
79.788588	24.672691	148.077000
79.814143	24.795728	148.124000
79.838937	24.917021	148.170000
79.864715	25.033602	148.217000
79.890340	25.146080	148.263000
79.914911	25.252276	148.309000
79.939145	25.354656	148.355000
79.964447	25.459064	148.401000
79.989395	25.567275	148.449000
80.014850	25.673832	148.495000
80.040328	25.774363	148.542000
80.065246	25.877419	148.588000
80.090486	25.985103	148.635000
80.116033	26.094852	148.681000
80.141174	26.210461	148.727000
80.166452	26.330248	148.774000
80.249503	26.454059	148.820000
80.449234	27.951641	148.975000
80.474221	28.096896	149.344000
80.499976	28.239992	149.390000
80.525177	28.389085	149.437000
80.550479	28.540470	149.483000
80.576073	28.693523	149.530000
80.600921	28.844511	149.576000
80.625915	28.989305	149.622000
80.650771	29.117834	149.668000
80.675466	29.245308	149.715000
