Sample	2mm tape 
date	07/01/2025
	
Temperature (K)	77.00
Angle (deg.)	0.000000
field / T	0.300000
	
		
Approx. trace time (s)	120.0	
		
Current / A	V1  -sample/ uV	time/s
-0.015681	0.881095	0.000000
-0.015644	0.878067	0.090000
-0.015754	0.871501	0.136000
-0.015601	0.870850	0.182000
-0.015607	0.865219	0.228000
-0.015724	0.863191	0.274000
-0.015637	0.857569	0.320000
-0.015594	0.856045	0.366000
-0.015607	0.852041	0.412000
-0.015644	0.853816	0.457000
-0.015613	0.852832	0.503000
-0.015594	0.849852	0.550000
-0.016392	0.852171	0.596000
-0.007893	0.850123	0.761000
0.020545	0.856285	0.808000
0.047143	0.853326	0.854000
0.070360	0.856643	0.901000
0.096047	0.855181	0.947000
0.120232	0.860136	0.993000
0.204046	0.866038	1.039000
0.229153	0.880686	1.194000
0.253951	0.880576	1.239000
0.279230	0.885483	1.286000
0.303870	0.889108	1.331000
0.328380	0.894568	1.377000
0.353281	0.894002	1.423000
0.379003	0.895129	1.470000
0.403694	0.896134	1.516000
0.429217	0.896889	1.562000
0.454224	0.903621	1.607000
0.479263	0.904867	1.654000
0.681585	0.921132	1.700000
0.706789	0.920281	2.075000
0.798637	0.919686	2.121000
0.822994	0.932172	2.291000
0.847847	0.935630	2.336000
0.872944	0.939199	2.383000
0.898024	0.940785	2.429000
0.923081	0.937468	2.475000
0.948272	0.939449	2.521000
0.973002	0.945620	2.566000
0.998206	0.941376	2.613000
1.021876	0.948958	2.658000
1.047366	0.947571	2.704000
1.072164	0.951760	2.751000
1.162602	0.959773	2.796000
1.186857	0.959382	2.962000
1.211509	0.962880	3.008000
1.236683	0.959502	3.055000
1.261591	0.970788	3.101000
1.287139	0.969757	3.147000
1.311937	0.976308	3.193000
1.510971	0.978340	3.239000
1.536297	0.999220	3.606000
1.561272	0.995131	3.653000
1.586096	0.995061	3.699000
1.610347	0.999120	3.745000
1.635457	0.998389	3.791000
1.660795	1.002913	3.837000
1.757300	1.013103	3.883000
1.782302	1.013698	4.062000
1.807845	1.015595	4.109000
1.833066	1.019024	4.154000
1.858311	1.021355	4.201000
1.883303	1.024013	4.247000
1.908450	1.026575	4.293000
1.991456	1.023908	4.339000
2.016040	1.032505	4.494000
2.041525	1.028512	4.540000
2.066445	1.032051	4.586000
2.091978	1.036154	4.632000
2.116641	1.038196	4.678000
2.141292	1.032556	4.724000
2.165760	1.033852	4.770000
2.190568	1.035994	4.816000
2.215981	1.037110	4.862000
2.240959	1.034728	4.908000
2.266132	1.040678	4.954000
2.353685	1.042164	5.001000
2.378586	1.039037	5.162000
2.403936	1.039612	5.208000
2.428861	1.038396	5.255000
2.453653	1.044517	5.299000
2.477678	1.044056	5.346000
2.502042	1.047019	5.391000
2.587157	1.042635	5.438000
2.612170	1.042224	5.592000
2.636936	1.038056	5.639000
2.661911	1.035773	5.684000
2.687022	1.035924	5.732000
2.711274	1.036879	5.777000
2.736638	1.030333	5.824000
2.761344	1.025809	5.869000
2.786867	1.024954	5.916000
2.811979	1.021940	5.962000
2.837325	1.023257	6.008000
2.862472	1.018963	6.055000
2.949480	1.008954	6.101000
2.974560	1.007608	6.261000
2.999230	1.000441	6.307000
3.023533	0.998249	6.354000
3.048337	0.994451	6.400000
3.073590	0.989235	6.446000
3.099030	0.982630	6.492000
3.182886	0.976309	6.538000
3.207813	0.969778	6.693000
3.232199	0.964698	6.739000
3.256631	0.964588	6.785000
3.282037	0.954569	6.831000
3.306842	0.955119	6.877000
3.332809	0.948133	6.924000
3.357552	0.949994	6.970000
3.382686	0.947732	7.016000
3.408072	0.941591	7.062000
3.432662	0.935196	7.108000
3.457156	0.933218	7.155000
3.660021	0.907515	7.201000
3.685193	0.897936	7.574000
3.776336	0.898647	7.620000
3.801786	0.885133	7.790000
3.826577	0.885133	7.836000
3.852234	0.877303	7.883000
3.877062	0.875758	7.929000
3.902571	0.872025	7.975000
3.927533	0.871021	8.022000
3.951700	0.868602	8.068000
3.976972	0.868387	8.114000
4.001757	0.860892	8.160000
4.026820	0.863754	8.206000
4.052276	0.863610	8.253000
4.140618	0.861516	8.299000
4.165746	0.874584	8.462000
4.190452	0.851037	8.508000
4.215868	0.852431	8.554000
4.240816	0.852321	8.600000
4.265841	0.850163	8.646000
4.290707	0.850553	8.692000
4.489294	0.847904	8.738000
4.514245	0.835406	9.106000
4.538897	0.836825	9.152000
4.564310	0.834786	9.199000
4.589415	0.833822	9.245000
4.614202	0.838059	9.290000
4.639355	0.830129	9.337000
4.736526	0.831644	9.383000
4.761441	0.830993	9.562000
4.786430	0.831474	9.608000
4.811425	0.833702	9.654000
4.836053	0.830239	9.700000
4.860836	0.839564	9.747000
4.885529	0.836600	9.792000
4.970229	0.842243	9.838000
4.995245	0.847964	9.994000
5.020566	0.846720	10.040000
5.045176	0.848155	10.086000
5.069630	0.850712	10.132000
5.093870	0.852211	10.177000
5.118768	0.852812	10.223000
5.143866	0.855359	10.269000
5.168670	0.855924	10.315000
5.193652	0.854930	10.360000
5.218565	0.860371	10.406000
5.242668	0.860892	10.452000
5.332390	0.873329	10.498000
5.356948	0.871760	10.661000
5.381533	0.874010	10.707000
5.406503	0.873960	10.754000
5.431479	0.876782	10.800000
5.456502	0.878951	10.846000
5.481331	0.880315	10.893000
5.565708	0.882754	10.938000
5.589629	0.887681	11.093000
5.614637	0.891490	11.138000
5.639295	0.891240	11.184000
5.664351	0.892106	11.231000
5.689608	0.894528	11.276000
5.714515	0.902135	11.323000
5.739839	0.904818	11.368000
5.765055	0.910538	11.415000
5.789768	0.913445	11.461000
5.814186	0.914451	11.507000
5.839107	0.912590	11.553000
5.927880	0.917909	11.599000
5.952715	0.913405	11.763000
5.977647	0.916047	11.808000
6.003309	0.920176	11.855000
6.028217	0.921113	11.902000
6.053519	0.922459	11.948000
6.079110	0.922529	11.994000
6.162413	0.925146	12.040000
6.187247	0.937973	12.195000
6.211769	0.934725	12.242000
6.236720	0.933719	12.288000
6.262422	0.938403	12.334000
6.287122	0.940415	12.379000
6.312767	0.940686	12.425000
6.337463	0.948083	12.472000
6.362298	0.942542	12.518000
6.387140	0.949108	12.564000
6.411540	0.946856	12.611000
6.436606	0.959128	12.656000
6.638747	0.990782	12.702000
6.663225	0.990902	13.075000
6.755423	0.995917	13.121000
6.780469	1.016561	13.291000
6.805809	1.015275	13.337000
6.831118	1.020300	13.383000
6.855719	1.020430	13.429000
6.880278	1.019809	13.475000
6.904868	1.025218	13.521000
6.929832	1.029863	13.567000
6.954948	1.033472	13.614000
6.980015	1.035793	13.660000
7.005559	1.033236	13.705000
7.030580	1.037981	13.751000
7.118687	1.050627	13.797000
7.144505	1.052619	13.963000
7.169710	1.056528	14.008000
7.195060	1.052579	14.055000
7.219172	1.061382	14.101000
7.244197	1.067103	14.148000
7.269519	1.069565	14.194000
7.468234	1.069524	14.240000
7.493993	1.101582	14.608000
7.519072	1.103969	14.653000
7.544336	1.111422	14.700000
7.569693	1.111532	14.747000
7.594787	1.114021	14.793000
7.619713	1.113650	14.839000
7.715846	1.128683	14.884000
7.740902	1.131567	15.062000
7.764947	1.135080	15.108000
7.789697	1.146763	15.155000
7.814888	1.143969	15.200000
7.840214	1.143270	15.246000
7.865443	1.151065	15.293000
7.949649	1.154783	15.339000
7.974613	1.172688	15.494000
7.998934	1.180614	15.540000
8.023725	1.184632	15.585000
8.048760	1.186087	15.632000
8.074161	1.187540	15.679000
8.099020	1.192742	15.724000
8.124231	1.198664	15.771000
8.149484	1.206025	15.817000
8.174370	1.210961	15.863000
8.199438	1.212176	15.908000
8.223671	1.216943	15.955000
8.311144	1.238141	16.000000
8.335808	1.240191	16.163000
8.360864	1.243183	16.208000
8.386546	1.245732	16.255000
8.410843	1.248271	16.301000
8.436383	1.252628	16.346000
8.461505	1.255851	16.393000
8.544674	1.260104	16.440000
8.569184	1.269973	16.593000
8.594626	1.272662	16.640000
8.619903	1.271647	16.687000
8.644482	1.274465	16.732000
8.670591	1.274465	16.779000
8.695303	1.276385	16.825000
8.720174	1.278503	16.871000
8.744806	1.282047	16.917000
8.769194	1.281112	16.963000
8.794515	1.287014	17.009000
8.819515	1.288239	17.056000
8.906459	1.302549	17.102000
8.931537	1.304619	17.262000
8.956708	1.307662	17.308000
8.981707	1.309575	17.354000
9.006689	1.313008	17.400000
9.031529	1.313118	17.445000
9.055897	1.312998	17.492000
9.139965	1.317360	17.538000
9.165058	1.331242	17.693000
9.189837	1.332133	17.739000
9.215200	1.338930	17.785000
9.240326	1.341012	17.831000
9.264707	1.340722	17.877000
9.288784	1.338529	17.923000
9.314346	1.343194	17.969000
9.338919	1.349345	18.014000
9.364251	1.356936	18.060000
9.389149	1.357537	18.105000
9.414249	1.369078	18.152000
9.617270	1.409845	18.198000
9.642246	1.408039	18.574000
9.735249	1.414150	18.621000
9.760021	1.424339	18.790000
9.784513	1.432006	18.836000
9.808728	1.431506	18.883000
9.833802	1.434279	18.928000
9.859047	1.441194	18.974000
9.884325	1.442886	19.021000
9.909326	1.443016	19.067000
9.934570	1.450323	19.112000
9.959859	1.452975	19.159000
9.984553	1.460383	19.206000
10.009283	1.460212	19.252000
10.098995	1.476377	19.298000
10.123467	1.473515	19.462000
10.147943	1.473945	19.508000
10.172557	1.480561	19.555000
10.197852	1.484951	19.601000
10.223353	1.484380	19.647000
10.248413	1.491106	19.693000
10.447380	1.496751	19.739000
10.472343	1.512476	20.107000
10.497459	1.510283	20.153000
10.522395	1.508172	20.199000
10.546979	1.515508	20.244000
10.571325	1.516745	20.291000
10.596172	1.514052	20.337000
10.693918	1.515913	20.383000
10.719010	1.517570	20.563000
10.744123	1.515048	20.609000
10.769265	1.511799	20.655000
10.794620	1.514302	20.702000
10.819497	1.512265	20.748000
10.844844	1.508796	20.793000
10.928141	1.506895	20.840000
10.953588	1.497967	20.995000
10.978105	1.496270	21.041000
11.003527	1.487492	21.088000
11.028055	1.487092	21.133000
11.053392	1.483999	21.179000
11.078791	1.486326	21.225000
11.104026	1.474295	21.271000
11.128468	1.471342	21.318000
11.152906	1.467654	21.364000
11.177392	1.471993	21.410000
11.202502	1.465341	21.456000
11.289295	1.463771	21.501000
11.314713	1.455688	21.663000
11.339546	1.448512	21.709000
11.365169	1.455238	21.755000
11.389967	1.453367	21.801000
11.415480	1.446985	21.846000
11.440106	1.443207	21.893000
11.523018	1.442691	21.940000
11.548330	1.428758	22.094000
11.573422	1.428794	22.140000
11.599040	1.425636	22.186000
11.623877	1.425221	22.232000
11.649105	1.418079	22.279000
11.672640	1.412343	22.324000
11.697777	1.409466	22.371000
11.722564	1.403995	22.416000
11.747502	1.400307	22.462000
11.772936	1.402499	22.507000
11.797924	1.391864	22.554000
11.885567	1.376064	22.599000
11.910729	1.369638	22.763000
11.935710	1.363207	22.808000
11.960668	1.358038	22.854000
11.985200	1.359239	22.901000
12.010187	1.347373	22.947000
12.035056	1.346973	22.993000
12.119403	1.341443	23.039000
12.144458	1.321513	23.194000
12.169331	1.315914	23.240000
12.193926	1.317640	23.286000
12.218101	1.311705	23.332000
12.243517	1.307751	23.378000
12.268273	1.301325	23.424000
12.294019	1.303214	23.470000
12.319460	1.301036	23.516000
12.344392	1.293930	23.563000
12.369795	1.290036	23.610000
12.394483	1.284555	23.655000
12.596018	1.253522	23.702000
12.621551	1.269339	24.075000
12.713117	1.261732	24.121000
12.737846	1.262483	24.291000
12.763076	1.262273	24.337000
12.787919	1.264021	24.383000
12.813347	1.266449	24.430000
12.838507	1.265776	24.476000
12.863743	1.265171	24.522000
12.889309	1.272902	24.569000
12.913793	1.277009	24.615000
12.938617	1.276475	24.661000
12.963570	1.280552	24.707000
12.988716	1.283521	24.754000
13.076100	1.303305	24.800000
13.100928	1.303888	24.962000
13.126133	1.311734	25.007000
13.150940	1.318406	25.054000
13.176517	1.322720	25.100000
13.201426	1.332449	25.146000
13.226312	1.339225	25.192000
13.425398	1.344410	25.238000
13.449742	1.390237	25.605000
13.474384	1.386224	25.651000
13.499540	1.396578	25.697000
13.524751	1.399746	25.743000
13.549681	1.408815	25.789000
13.574845	1.407959	25.835000
13.672341	1.431081	25.882000
13.696949	1.425965	26.062000
13.722135	1.428728	26.108000
13.747252	1.427857	26.153000
13.772632	1.429494	26.200000
13.797425	1.439508	26.246000
13.822495	1.442501	26.293000
13.905954	1.442181	26.339000
13.931410	1.451990	26.494000
13.956472	1.452170	26.540000
13.981234	1.452445	26.586000
14.006679	1.457090	26.632000
14.030753	1.463590	26.678000
14.055547	1.461158	26.724000
14.080118	1.461419	26.770000
14.105666	1.465382	26.817000
14.130871	1.464956	26.863000
14.156279	1.468134	26.909000
14.181324	1.470857	26.955000
14.268355	1.477242	27.001000
14.293438	1.473209	27.162000
14.318127	1.475281	27.208000
14.342741	1.477132	27.254000
14.367556	1.475682	27.300000
14.392475	1.480580	27.346000
14.417724	1.479455	27.393000
14.502198	1.474851	27.438000
14.527292	1.477953	27.594000
14.551734	1.479555	27.639000
14.576269	1.478349	27.686000
14.600778	1.477252	27.732000
14.626135	1.480135	27.778000
14.651143	1.483003	27.824000
14.676401	1.484820	27.870000
14.701478	1.483033	27.915000
14.726608	1.483273	27.962000
14.751566	1.489704	28.008000
14.776064	1.492702	28.054000
14.864622	1.496150	28.100000
14.889713	1.494008	28.262000
14.913662	1.503507	28.309000
14.938485	1.501466	28.354000
14.963445	1.507651	28.400000
14.988610	1.508292	28.446000
15.014301	1.505479	28.492000
15.098112	1.510484	28.538000
15.123295	1.519126	28.693000
15.147321	1.520543	28.739000
15.172436	1.512716	28.785000
15.197722	1.515208	28.830000
15.223156	1.528728	28.877000
15.248416	1.528188	28.924000
15.273150	1.528328	28.970000
15.298226	1.531600	29.016000
15.322403	1.526528	29.062000
15.347144	1.527023	29.107000
15.372312	1.526689	29.154000
15.575756	1.518041	29.200000
15.600656	1.511709	29.574000
15.692487	1.510914	29.621000
15.717279	1.504923	29.791000
15.742496	1.502812	29.837000
15.767938	1.497857	29.882000
15.792180	1.493072	29.928000
15.816872	1.493152	29.974000
15.841120	1.490310	30.021000
15.866261	1.488468	30.067000
15.891914	1.499548	30.113000
15.916730	1.486116	30.158000
15.942148	1.472428	30.205000
15.967149	1.471793	30.251000
16.055943	1.465502	30.298000
16.081187	1.457219	30.463000
16.106616	1.454031	30.509000
16.131454	1.453921	30.555000
16.156817	1.450603	30.601000
16.181610	1.444923	30.647000
16.206072	1.445228	30.694000
16.404828	1.437226	30.740000
16.429526	1.423363	31.107000
16.454880	1.412713	31.153000
16.479960	1.404711	31.199000
16.504893	1.410090	31.244000
16.530228	1.407283	31.291000
16.555193	1.406117	31.337000
16.651945	1.408519	31.382000
16.676941	1.403585	31.562000
16.702147	1.399786	31.608000
16.726173	1.400517	31.654000
16.751175	1.394386	31.700000
16.776505	1.400106	31.746000
16.801154	1.401032	31.793000
16.885697	1.398690	31.838000
16.911043	1.396128	31.993000
16.935595	1.396418	32.039000
16.959863	1.397173	32.085000
16.984950	1.401563	32.131000
17.010031	1.394416	32.178000
17.035100	1.393060	32.224000
17.060075	1.397013	32.270000
17.085309	1.396588	32.316000
17.110866	1.399030	32.362000
17.135352	1.402974	32.408000
17.160448	1.397614	32.454000
17.248175	1.404520	32.500000
17.272647	1.402619	32.663000
17.297365	1.405707	32.708000
17.322150	1.408118	32.755000
17.348007	1.401998	32.801000
17.372417	1.401748	32.847000
17.397744	1.405737	32.893000
17.481824	1.405071	32.938000
17.506226	1.404440	33.094000
17.530602	1.406532	33.140000
17.555932	1.402944	33.186000
17.581313	1.407103	33.232000
17.605927	1.403404	33.278000
17.631918	1.406147	33.324000
17.656705	1.402994	33.370000
17.681061	1.404670	33.416000
17.705616	1.404170	33.462000
17.730529	1.404630	33.508000
17.755526	1.402759	33.554000
17.842856	1.412402	33.599000
17.868503	1.413143	33.763000
17.893282	1.412923	33.809000
17.918123	1.410862	33.855000
17.943730	1.410851	33.901000
17.968336	1.412873	33.947000
17.993932	1.414935	33.992000
18.076669	1.417057	34.040000
18.101823	1.415901	34.194000
18.126700	1.421136	34.240000
18.151519	1.423413	34.285000
18.177115	1.426501	34.331000
18.201959	1.425946	34.378000
18.226883	1.426336	34.423000
18.250784	1.430039	34.469000
18.275782	1.424849	34.515000
18.300892	1.430059	34.561000
18.325945	1.430169	34.607000
18.350788	1.429914	34.653000
18.553733	1.463530	34.699000
18.578810	1.464146	35.074000
18.670936	1.468135	35.121000
18.696659	1.480571	35.291000
18.721872	1.483614	35.337000
18.747166	1.486421	35.384000
18.771188	1.492903	35.430000
18.795960	1.491867	35.476000
18.821355	1.493698	35.523000
18.846330	1.493303	35.569000
18.871784	1.500845	35.615000
18.896838	1.499749	35.660000
18.922020	1.502541	35.707000
18.946623	1.500514	35.753000
19.035069	1.515128	35.799000
19.060340	1.510564	35.962000
19.085418	1.510815	36.008000
19.110307	1.513391	36.055000
19.133941	1.515743	36.101000
19.159028	1.519732	36.146000
19.184268	1.521759	36.192000
19.382901	1.527928	36.238000
19.408588	1.535576	36.605000
19.433491	1.536879	36.651000
19.458516	1.537044	36.698000
19.482742	1.542302	36.743000
19.507271	1.540292	36.790000
19.532354	1.539148	36.835000
19.631372	1.546383	36.881000
19.655220	1.545765	37.062000
19.679732	1.545594	37.108000
19.704926	1.543326	37.154000
19.729621	1.544200	37.201000
19.755082	1.539513	37.246000
19.780268	1.542700	37.292000
19.863701	1.543116	37.338000
19.888270	1.538193	37.493000
19.913228	1.541418	37.539000
19.938597	1.539693	37.585000
19.963595	1.538528	37.631000
19.988693	1.536390	37.678000
20.013545	1.538989	37.723000
20.038985	1.536728	37.769000
20.064135	1.540421	37.816000
20.088192	1.535326	37.861000
20.112881	1.538689	37.908000
20.138261	1.544090	37.953000
20.226016	1.540637	38.000000
20.250799	1.541227	38.163000
20.276460	1.532906	38.209000
20.301126	1.538558	38.255000
20.326746	1.539933	38.301000
20.351460	1.537064	38.347000
20.376756	1.535526	38.392000
20.459437	1.538819	38.439000
20.484789	1.542691	38.594000
20.509776	1.544650	38.639000
20.534582	1.541247	38.686000
20.559870	1.547019	38.731000
20.585171	1.548673	38.778000
20.609847	1.548452	38.824000
20.634296	1.549338	38.870000
20.658812	1.549777	38.916000
20.684006	1.550751	38.962000
20.709265	1.556843	39.008000
20.734392	1.555618	39.054000
20.822045	1.561359	39.100000
20.847210	1.557498	39.263000
20.872786	1.563470	39.309000
20.897871	1.564594	39.356000
20.923353	1.562904	39.402000
20.947706	1.564069	39.448000
20.972423	1.568465	39.494000
21.056285	1.567213	39.540000
21.081525	1.572008	39.695000
21.106761	1.570215	39.742000
21.131965	1.575153	39.788000
21.157299	1.573929	39.834000
21.181894	1.577492	39.880000
21.206260	1.575822	39.926000
21.231156	1.578396	39.972000
21.256045	1.578140	40.018000
21.281106	1.582360	40.064000
21.306546	1.580509	40.110000
21.331717	1.581533	40.156000
21.532887	1.574992	40.203000
21.558103	1.570285	40.575000
21.649945	1.573698	40.621000
21.674447	1.570445	40.791000
21.699336	1.568625	40.837000
21.724036	1.569541	40.883000
21.749730	1.567301	40.928000
21.774471	1.562884	40.975000
21.799740	1.561509	41.021000
21.825139	1.562445	41.067000
21.850393	1.563249	41.114000
21.875235	1.563239	41.160000
21.899646	1.559091	41.207000
21.924742	1.557097	41.252000
22.013407	1.559696	41.299000
22.038514	1.560126	41.463000
22.062510	1.556642	41.509000
22.087735	1.557267	41.555000
22.113027	1.558431	41.601000
22.138567	1.559201	41.647000
22.163686	1.559976	41.693000
22.362359	1.558882	41.739000
22.387743	1.547517	42.106000
22.412695	1.545994	42.153000
22.436838	1.546728	42.199000
22.461512	1.543535	42.244000
22.486617	1.548816	42.291000
22.512394	1.533586	42.337000
22.609414	1.528398	42.382000
22.635066	1.523460	42.562000
22.659664	1.514272	42.609000
22.684520	1.521668	42.655000
22.710002	1.509597	42.701000
22.735619	1.510073	42.748000
22.760585	1.509707	42.794000
22.843531	1.505398	42.840000
22.868453	1.499113	42.994000
22.893804	1.494568	43.041000
22.918996	1.499648	43.087000
22.943848	1.488198	43.133000
22.969210	1.492046	43.179000
22.994258	1.487557	43.225000
23.018557	1.489774	43.271000
23.043459	1.481211	43.317000
23.067948	1.481401	43.364000
23.093732	1.476186	43.410000
23.118574	1.472317	43.456000
23.205580	1.465212	43.502000
23.231050	1.457169	43.662000
23.255864	1.454402	43.709000
23.281404	1.452875	43.755000
23.305858	1.449517	43.802000
23.330845	1.440329	43.848000
23.355290	1.448261	43.894000
23.439754	1.442986	43.940000
23.464622	1.442030	44.095000
23.490108	1.436109	44.141000
23.514885	1.431475	44.187000
23.539524	1.435644	44.233000
23.563874	1.430479	44.278000
23.588625	1.427937	44.325000
23.613792	1.428923	44.371000
23.638757	1.426541	44.417000
23.663934	1.427202	44.463000
23.689432	1.432096	44.509000
23.714192	1.427757	44.555000
23.801432	1.432792	44.601000
23.826937	1.429344	44.763000
23.852008	1.425856	44.808000
23.875821	1.428357	44.855000
23.900533	1.427352	44.901000
23.925721	1.428508	44.947000
23.950884	1.429324	44.993000
24.035072	1.433678	45.039000
24.060535	1.441616	45.194000
24.085224	1.436350	45.241000
24.109513	1.437146	45.286000
24.133827	1.436801	45.331000
24.158816	1.433062	45.378000
24.184548	1.434934	45.424000
24.209825	1.436380	45.470000
24.234512	1.435584	45.516000
24.259848	1.436400	45.562000
24.284120	1.430039	45.608000
24.308294	1.428813	45.653000
24.512147	1.419184	45.700000
24.537265	1.419739	46.074000
24.628632	1.419809	46.121000
24.653657	1.416781	46.291000
24.679172	1.416591	46.337000
24.703998	1.414509	46.384000
24.729267	1.411276	46.430000
24.754801	1.412472	46.476000
24.779228	1.408944	46.522000
24.804522	1.406246	46.568000
24.828498	1.410060	46.614000
24.853773	1.404861	46.660000
24.878681	1.408319	46.706000
24.904136	1.404390	46.753000
24.991956	1.403054	46.798000
25.017037	1.400751	46.963000
25.042682	1.406532	47.008000
25.067185	1.395927	47.055000
25.093120	1.393685	47.101000
25.117786	1.389061	47.146000
25.142527	1.380418	47.193000
25.341594	1.381339	47.239000
25.365603	1.373106	47.606000
25.390568	1.374867	47.652000
25.415236	1.377400	47.698000
25.440513	1.376224	47.743000
25.465887	1.371079	47.790000
25.491444	1.371200	47.836000
25.588093	1.380538	47.883000
25.613711	1.378466	48.062000
25.638296	1.380378	48.108000
25.663271	1.380878	48.153000
25.687870	1.380878	48.200000
25.712420	1.388516	48.246000
25.737820	1.390437	48.292000
25.821560	1.392259	48.338000
25.846422	1.397513	48.493000
25.871714	1.404400	48.538000
25.896760	1.405906	48.585000
25.920923	1.407618	48.631000
25.945515	1.410380	48.677000
25.970586	1.416641	48.723000
25.995855	1.417677	48.769000
26.020821	1.412662	48.814000
26.046005	1.428963	48.861000
26.071188	1.433767	48.907000
26.095810	1.433997	48.952000
26.184250	1.435514	48.999000
26.210045	1.436630	49.163000
26.233943	1.436420	49.209000
26.258910	1.438211	49.255000
26.283428	1.439888	49.301000
26.308902	1.441810	49.347000
26.333920	1.444312	49.394000
26.418027	1.450764	49.440000
26.443029	1.466868	49.594000
26.467049	1.472298	49.639000
26.491976	1.465542	49.686000
26.516978	1.470446	49.731000
26.542222	1.466123	49.777000
26.567518	1.468364	49.823000
26.592289	1.465632	49.870000
26.617635	1.470927	49.916000
26.642170	1.473179	49.962000
26.667136	1.470486	50.008000
26.691800	1.471242	50.054000
26.779752	1.478719	50.100000
26.804624	1.472238	50.263000
26.829409	1.478198	50.308000
26.854789	1.480295	50.355000
26.879413	1.483703	50.401000
26.904904	1.487232	50.447000
26.929956	1.486891	50.493000
27.013329	1.490369	50.539000
27.037940	1.490740	50.694000
27.063151	1.495990	50.740000
27.088545	1.497677	50.787000
27.113260	1.498632	50.832000
27.138447	1.499988	50.878000
27.163289	1.507511	50.924000
27.188222	1.508041	50.970000
27.212715	1.514997	51.016000
27.237125	1.506089	51.062000
27.262064	1.511108	51.108000
27.286912	1.517049	51.154000
27.490722	1.530547	51.200000
27.515416	1.534191	51.575000
27.607264	1.541257	51.622000
27.632551	1.546939	51.791000
27.657727	1.551556	51.837000
27.682541	1.554205	51.883000
27.706921	1.552560	51.929000
27.731815	1.558692	51.975000
27.756500	1.560376	52.021000
27.782080	1.564554	52.068000
27.807002	1.566029	52.114000
27.832084	1.569121	52.159000
27.857242	1.576037	52.205000
27.881769	1.577562	52.251000
27.971554	1.578345	52.297000
27.996090	1.586886	52.462000
28.021916	1.583362	52.508000
28.046384	1.605705	52.555000
28.071789	1.592377	52.601000
28.095942	1.595585	52.647000
28.120706	1.596870	52.692000
28.319753	1.595725	52.739000
28.344765	1.616973	53.106000
28.370230	1.618218	53.152000
28.394972	1.617013	53.199000
28.419675	1.617829	53.244000
28.444594	1.619402	53.290000
28.469298	1.621571	53.336000
28.567516	1.631986	53.383000
28.593090	1.629927	53.563000
28.617818	1.627244	53.609000
28.641855	1.630892	53.655000
28.666757	1.630951	53.701000
28.692063	1.634195	53.748000
28.717115	1.636223	53.794000
28.801717	1.635499	53.840000
28.826602	1.638792	53.995000
28.850803	1.636163	54.041000
28.874791	1.637538	54.087000
28.900196	1.637798	54.133000
28.925167	1.639806	54.179000
28.950183	1.640345	54.225000
28.975592	1.637648	54.270000
29.000675	1.638227	54.317000
29.026253	1.634764	54.363000
29.050602	1.638037	54.409000
29.074843	1.636883	54.455000
29.162381	1.635928	54.501000
29.187283	1.633509	54.663000
29.212131	1.632700	54.708000
29.237479	1.630572	54.755000
29.262554	1.627963	54.801000
29.287707	1.625409	54.848000
29.313587	1.618824	54.895000
29.396770	1.618473	54.940000
29.421275	1.611242	55.095000
29.446469	1.612562	55.141000
29.471246	1.601219	55.187000
29.496574	1.609149	55.233000
29.521538	1.605646	55.279000
29.547078	1.606505	55.325000
29.571548	1.608315	55.371000
29.596632	1.604381	55.417000
29.621479	1.604171	55.464000
29.645816	1.603107	55.510000
29.671312	1.605465	55.557000
29.757933	1.607599	55.602000
29.783284	1.605716	55.763000
29.808052	1.606056	55.809000
29.833527	1.605385	55.855000
29.858830	1.609299	55.901000
29.883686	1.605270	55.947000
29.908319	1.605375	55.993000
29.991256	1.612096	56.039000
30.017190	1.615729	56.194000
30.041593	1.615090	56.241000
30.067052	1.612246	56.287000
30.091864	1.610523	56.333000
30.116284	1.611002	56.378000
30.140550	1.610032	56.423000
30.165277	1.607398	56.470000
30.190511	1.610723	56.514000
30.215256	1.611417	56.560000
30.240081	1.610303	56.606000
30.265617	1.612336	56.653000
30.468253	1.633559	56.699000
30.493756	1.631716	57.075000
30.586071	1.633654	57.122000
30.610795	1.645958	57.291000
30.635234	1.645768	57.336000
30.659784	1.652554	57.382000
30.685003	1.646436	57.428000
30.710180	1.651890	57.475000
30.735000	1.653282	57.521000
30.760528	1.659800	57.567000
30.785639	1.670669	57.613000
30.810593	1.667196	57.659000
30.835267	1.666996	57.705000
30.859424	1.666516	57.751000
30.950129	1.679278	57.797000
30.975154	1.675875	57.963000
30.999998	1.676351	58.009000
31.024893	1.684075	58.056000
31.049545	1.686479	58.101000
31.074264	1.687060	58.147000
31.099605	1.684370	58.194000
31.298406	1.683955	58.240000
31.323450	1.694770	58.606000
31.348783	1.693955	58.653000
31.373791	1.700078	58.699000
31.397951	1.696883	58.744000
31.422118	1.703210	58.790000
31.447615	1.701342	58.837000
31.545339	1.704805	58.883000
31.569400	1.701500	59.062000
31.594961	1.705203	59.109000
31.620209	1.705729	59.154000
31.644705	1.713739	59.200000
31.670524	1.709142	59.247000
31.695679	1.713203	59.293000
31.778782	1.715817	59.340000
31.803315	1.716068	59.494000
31.828457	1.718216	59.540000
31.853705	1.717563	59.587000
31.879220	1.719821	59.633000
31.904141	1.715334	59.679000
31.928932	1.719721	59.724000
31.953659	1.714110	59.770000
31.978067	1.714080	59.816000
32.003267	1.708676	59.863000
32.028540	1.711055	59.909000
32.053721	1.704395	59.956000
32.140740	1.706167	60.002000
32.165671	1.698323	60.163000
32.191241	1.700922	60.208000
32.216558	1.699547	60.256000
32.241821	1.699988	60.301000
32.266351	1.702096	60.348000
32.291902	1.703631	60.394000
32.374580	1.703341	60.440000
32.399897	1.704555	60.595000
32.425394	1.706613	60.641000
32.450181	1.702256	60.687000
32.476036	1.707717	60.733000
32.500581	1.709553	60.779000
32.525352	1.708258	60.825000
32.549133	1.704525	60.872000
32.573866	1.704635	60.917000
32.599475	1.700822	60.963000
32.624646	1.703899	61.010000
32.649955	1.714180	61.056000
32.736705	1.710366	61.102000
32.762291	1.706603	61.262000
32.786936	1.708318	61.309000
32.811734	1.709781	61.354000
32.836452	1.711016	61.401000
32.860555	1.714549	61.446000
32.885810	1.706138	61.493000
32.970113	1.711056	61.538000
32.995138	1.716328	61.693000
33.020348	1.716458	61.738000
33.044504	1.717951	61.785000
33.069207	1.714519	61.831000
33.094239	1.714934	61.877000
33.119675	1.715778	61.924000
33.144585	1.712855	61.970000
33.169699	1.714539	62.015000
33.194508	1.714913	62.060000
33.219345	1.712334	62.107000
33.244074	1.715394	62.153000
33.447163	1.722739	62.199000
33.472692	1.719276	62.574000
33.563933	1.712755	62.622000
33.588939	1.723903	62.791000
33.613875	1.722110	62.837000
33.639177	1.723444	62.883000
33.664240	1.722809	62.929000
33.689315	1.725763	62.975000
33.715032	1.722639	63.022000
33.739557	1.725693	63.068000
33.764579	1.728571	63.114000
33.788536	1.731625	63.160000
33.813169	1.731925	63.205000
33.838855	1.732429	63.251000
33.927560	1.754255	63.298000
33.952243	1.757643	63.463000
33.977291	1.762177	63.507000
34.003150	1.765646	63.555000
34.028148	1.771506	63.601000
34.054030	1.775900	63.648000
34.079062	1.780249	63.694000
34.277787	1.786434	63.740000
34.302770	1.818579	64.107000
34.326815	1.832342	64.154000
34.351913	1.827898	64.199000
34.376501	1.831767	64.245000
34.401479	1.838292	64.291000
34.426539	1.837657	64.337000
34.523923	1.855163	64.382000
34.548906	1.857474	64.562000
34.574100	1.857375	64.609000
34.599206	1.859777	64.654000
34.624242	1.861113	64.701000
34.649367	1.861344	64.747000
34.673539	1.868360	64.793000
34.757373	1.869896	64.840000
34.782871	1.883379	64.994000
34.807489	1.888464	65.040000
34.832932	1.890185	65.087000
34.858234	1.895330	65.133000
34.883397	1.894615	65.179000
34.907101	1.900174	65.224000
34.932253	1.899644	65.271000
34.957669	1.908166	65.318000
34.982879	1.908707	65.364000
35.007608	1.915958	65.410000
35.032748	1.918902	65.456000
35.120086	1.923666	65.502000
35.144881	1.920168	65.663000
35.170190	1.926229	65.709000
35.195150	1.926513	65.755000
35.218769	1.924391	65.801000
35.244228	1.930432	65.847000
35.269122	1.928996	65.894000
35.353456	1.935647	65.940000
35.378681	1.940847	66.094000
35.403490	1.943810	66.140000
35.427432	1.944966	66.186000
35.452223	1.943519	66.232000
35.477705	1.945962	66.278000
35.502419	1.953265	66.324000
35.527851	1.953495	66.371000
35.552646	1.952291	66.415000
35.577813	1.955784	66.462000
35.603184	1.959677	66.508000
35.627636	1.961397	66.555000
35.715904	1.963685	66.600000
35.740886	1.966908	66.762000
35.764955	1.969497	66.808000
35.789842	1.972285	66.855000
35.815151	1.974473	66.900000
35.840441	1.974673	66.947000
35.865174	1.982804	66.993000
35.949677	1.983489	67.039000
35.974602	1.987976	67.194000
35.998620	1.992453	67.241000
36.023745	1.994098	67.287000
36.048912	1.990545	67.333000
36.074202	1.994707	67.379000
36.099158	1.999354	67.424000
36.124387	1.997851	67.471000
36.149404	2.000609	67.517000
36.173941	2.000994	67.563000
36.198213	2.006401	67.609000
36.223250	2.011118	67.655000
36.426593	2.032256	67.701000
36.451848	2.031898	68.075000
36.542732	2.031467	68.122000
36.567868	2.038904	68.291000
36.593181	2.038228	68.337000
36.618045	2.041332	68.383000
36.643393	2.037789	68.429000
36.667803	2.037289	68.475000
36.692567	2.036285	68.521000
36.717312	2.034754	68.567000
36.742575	2.038523	68.614000
36.767819	2.041821	68.659000
36.792686	2.038010	68.706000
36.818045	2.042276	68.752000
36.906659	2.044374	68.798000
36.932068	2.044995	68.963000
36.957362	2.045809	69.009000
36.982510	2.045518	69.056000
37.007635	2.049951	69.102000
37.032460	2.054179	69.148000
37.056897	2.049222	69.194000
37.254950	2.051841	69.240000
37.280225	2.068597	69.607000
37.305445	2.069831	69.653000
37.330325	2.065908	69.699000
37.355595	2.067383	69.745000
37.380594	2.063870	69.791000
37.406337	2.065242	69.838000
37.502584	2.056884	69.884000
37.528777	2.053396	70.063000
37.553510	2.047733	70.110000
37.578723	2.045106	70.156000
37.603226	2.043301	70.202000
37.627936	2.040008	70.248000
37.653130	2.032068	70.294000
37.737356	2.030573	70.341000
37.762957	2.018720	70.495000
37.787433	2.012513	70.541000
37.811943	2.003363	70.586000
37.836776	2.000081	70.633000
37.861824	1.996437	70.679000
37.886322	1.991870	70.724000
37.910971	1.984554	70.770000
37.936987	1.974325	70.816000
37.962147	1.973221	70.863000
37.987072	1.972670	70.909000
38.011820	1.964047	70.955000
38.099485	1.951606	71.001000
38.123960	1.941087	71.163000
38.149173	1.940957	71.208000
38.173403	1.935207	71.255000
38.198574	1.931269	71.301000
38.224579	1.926715	71.347000
38.249988	1.915124	71.394000
38.334206	1.910289	71.440000
38.358667	1.888555	71.596000
38.382363	1.882103	71.641000
38.407829	1.875607	71.688000
38.432935	1.868741	71.734000
38.457876	1.866049	71.780000
38.482651	1.859402	71.825000
38.508229	1.851070	71.871000
38.533661	1.843837	71.917000
38.558087	1.841225	71.964000
38.583504	1.832742	72.010000
38.607991	1.836541	72.056000
38.695002	1.812939	72.103000
38.719497	1.805232	72.263000
38.744315	1.797820	72.309000
38.769716	1.797630	72.355000
38.795271	1.795508	72.402000
38.820412	1.793431	72.447000
38.844845	1.787520	72.493000
38.927742	1.786119	72.539000
38.953420	1.783928	72.694000
38.978660	1.777817	72.741000
39.003762	1.784253	72.786000
39.028722	1.768388	72.833000
39.054189	1.769775	72.880000
39.079325	1.767497	72.926000
39.104054	1.766521	72.972000
39.128899	1.760145	73.018000
39.154193	1.756417	73.064000
39.178203	1.753645	73.110000
39.203163	1.748314	73.156000
39.405803	1.725542	73.202000
39.430248	1.718925	73.576000
39.522464	1.715768	73.622000
39.548292	1.701052	73.791000
39.573156	1.698433	73.837000
39.597313	1.697827	73.883000
39.621827	1.694216	73.929000
39.646975	1.695518	73.974000
39.671466	1.690921	74.021000
39.697217	1.693525	74.067000
39.722446	1.685495	74.113000
39.747302	1.685069	74.160000
39.772427	1.679834	74.205000
39.797121	1.677355	74.252000
39.886472	1.673962	74.297000
39.911678	1.664888	74.463000
39.936968	1.668281	74.509000
39.960871	1.670339	74.555000
39.985950	1.674232	74.601000
40.011029	1.672588	74.647000
40.035347	1.682212	74.693000
40.234844	1.675816	74.739000
40.260007	1.693665	75.106000
40.284763	1.697739	75.152000
40.310468	1.699948	75.199000
40.335862	1.700397	75.245000
40.359911	1.700078	75.290000
40.384283	1.708781	75.337000
40.483073	1.718206	75.384000
40.507303	1.717382	75.563000
40.531383	1.721719	75.609000
40.556842	1.724298	75.655000
40.581852	1.725402	75.701000
40.606527	1.731873	75.747000
40.632351	1.730669	75.794000
40.716708	1.734807	75.840000
40.741045	1.741703	75.995000
40.766251	1.742624	76.041000
40.790588	1.742729	76.087000
40.815694	1.744145	76.134000
40.841076	1.742829	76.179000
40.866873	1.742989	76.226000
40.891022	1.744946	76.272000
40.916359	1.743790	76.318000
40.941610	1.746728	76.364000
40.966213	1.751452	76.411000
40.990627	1.743975	76.456000
41.077561	1.750256	76.503000
41.102037	1.748679	76.663000
41.127623	1.752278	76.709000
41.153447	1.751232	76.756000
41.177942	1.752217	76.802000
41.203317	1.752828	76.849000
41.229448	1.756196	76.896000
41.312268	1.754205	76.941000
41.337919	1.750416	77.097000
41.361661	1.746778	77.143000
41.387013	1.747229	77.188000
41.412791	1.746908	77.235000
41.437935	1.745242	77.281000
41.462848	1.743230	77.328000
41.487593	1.739060	77.373000
41.513582	1.743250	77.420000
41.537240	1.740254	77.466000
41.562119	1.740104	77.512000
41.587063	1.737326	77.558000
41.673529	1.731414	77.604000
41.698965	1.731813	77.763000
41.723851	1.731564	77.809000
41.748561	1.730919	77.855000
41.773836	1.732033	77.901000
41.799268	1.736342	77.947000
41.823191	1.733482	77.994000
41.906917	1.738420	78.040000
41.931685	1.743915	78.194000
41.956772	1.748034	78.241000
41.982934	1.746948	78.287000
42.007306	1.747643	78.332000
42.031593	1.750106	78.378000
42.055923	1.748699	78.424000
42.081470	1.762732	78.471000
42.106173	1.764228	78.517000
42.131670	1.766731	78.563000
42.156983	1.769715	78.609000
42.181662	1.772903	78.655000
42.383906	1.807854	78.701000
42.409715	1.809966	79.076000
42.500998	1.833052	79.122000
42.525647	1.837156	79.291000
42.550641	1.837576	79.337000
42.574783	1.839688	79.383000
42.599961	1.847671	79.428000
42.625628	1.853101	79.474000
42.650718	1.858931	79.521000
42.675901	1.866008	79.567000
42.700657	1.871448	79.613000
42.725259	1.873265	79.659000
42.749520	1.874471	79.704000
42.775290	1.871839	79.752000
42.865732	1.884956	79.798000
42.889159	1.879631	79.963000
42.914553	1.879671	80.009000
42.939947	1.884485	80.056000
42.964553	1.886527	80.102000
42.990412	1.884595	80.148000
43.015337	1.890116	80.194000
43.214173	1.893663	80.240000
43.239064	1.908197	80.607000
43.265011	1.905230	80.654000
43.289221	1.902217	80.700000
43.313981	1.900225	80.746000
43.338818	1.901681	80.792000
43.363236	1.897111	80.838000
43.459805	1.899654	80.884000
43.485518	1.898238	81.063000
43.510555	1.900800	81.109000
43.535192	1.900660	81.155000
43.561150	1.900650	81.201000
43.586475	1.901731	81.247000
43.611023	1.900910	81.293000
43.693697	1.894710	81.340000
43.718592	1.911140	81.493000
43.744039	1.911786	81.540000
43.769495	1.920519	81.586000
43.794328	1.919183	81.632000
43.818999	1.925398	81.678000
43.843955	1.927830	81.724000
43.868062	1.927660	81.770000
43.892772	1.933580	81.816000
43.918742	1.940677	81.861000
43.943610	1.942134	81.909000
43.968646	1.948845	81.955000
44.056334	1.959677	82.001000
44.081800	1.964259	82.163000
44.106376	1.966074	82.209000
44.131747	1.968112	82.255000
44.156491	1.975518	82.301000
44.180698	1.978641	82.347000
44.205769	1.981699	82.393000
44.289534	1.982743	82.440000
44.314974	1.986546	82.594000
44.340529	1.992178	82.640000
44.365508	1.996965	82.686000
44.390287	1.997085	82.733000
44.415155	1.999274	82.778000
44.439104	2.003082	82.825000
44.463726	2.013456	82.871000
44.489504	2.014021	82.917000
44.515113	2.015655	82.963000
44.539500	2.023877	83.009000
44.565028	2.023907	83.056000
44.652262	2.046773	83.101000
44.677234	2.047274	83.263000
44.703012	2.052905	83.309000
44.728010	2.061480	83.356000
44.751045	2.061240	83.401000
44.776335	2.070545	83.448000
44.801863	2.071014	83.494000
44.886074	2.077116	83.540000
44.912159	2.098699	83.695000
44.936485	2.100163	83.741000
44.960926	2.104941	83.788000
44.985794	2.106789	83.834000
45.010346	2.114779	83.880000
45.036777	2.114809	83.927000
45.061871	2.120556	83.973000
45.087799	2.118763	84.019000
45.112290	2.123640	84.064000
45.137081	2.122236	84.111000
45.162820	2.128941	84.157000
45.363601	2.163397	84.203000
45.389463	2.164662	84.576000
45.479748	2.164201	84.622000
45.504523	2.178176	84.790000
45.530370	2.181230	84.837000
45.555518	2.186094	84.882000
45.580055	2.193161	84.929000
45.605046	2.196589	84.975000
45.630881	2.202269	85.021000
45.655418	2.202680	85.068000
45.679441	2.209876	85.114000
45.705138	2.219065	85.161000
45.730597	2.220806	85.207000
45.754892	2.230926	85.252000
45.844620	2.263097	85.299000
45.868880	2.266675	85.464000
45.894247	2.275619	85.509000
45.919779	2.287215	85.555000
45.945065	2.295087	85.602000
45.969860	2.302935	85.648000
45.995004	2.310787	85.695000
46.193875	2.322758	85.741000
46.217813	2.403301	86.107000
46.243018	2.409791	86.154000
46.268704	2.422521	86.199000
46.292869	2.424469	86.246000
46.318566	2.430470	86.292000
46.343867	2.442464	86.338000
46.439976	2.477854	86.384000
46.465189	2.484534	86.563000
46.490621	2.492835	86.609000
46.515831	2.497663	86.655000
46.540057	2.505257	86.702000
46.565408	2.512608	86.748000
46.590226	2.528405	86.793000
46.674464	2.525103	86.840000
46.699396	2.560806	86.995000
46.724583	2.569347	87.042000
46.749804	2.577757	87.088000
46.774932	2.590455	87.134000
46.799312	2.600375	87.180000
46.823661	2.610970	87.226000
46.849339	2.620974	87.272000
46.873561	2.626664	87.319000
46.899135	2.635888	87.364000
46.924860	2.644856	87.411000
46.949700	2.652999	87.457000
47.036220	2.684522	87.502000
47.061833	2.692449	87.663000
47.086896	2.702943	87.709000
47.111064	2.707953	87.756000
47.136754	2.716086	87.803000
47.161260	2.722692	87.849000
47.186063	2.730664	87.895000
47.270534	2.737420	87.941000
47.295298	2.768349	88.095000
47.320446	2.774129	88.141000
47.345279	2.779595	88.187000
47.369275	2.788913	88.234000
47.394584	2.796585	88.280000
47.420008	2.804803	88.326000
47.445014	2.818548	88.372000
47.470427	2.827841	88.419000
47.495525	2.836917	88.464000
47.520458	2.842928	88.511000
47.544757	2.848139	88.557000
47.632421	2.870009	88.602000
47.656824	2.887214	88.763000
47.681200	2.899636	88.808000
47.706859	2.910565	88.856000
47.731680	2.930538	88.902000
47.756840	2.954566	88.948000
47.782510	2.965594	88.994000
47.865595	2.966159	89.040000
47.891139	2.983794	89.196000
47.915876	2.994543	89.242000
47.939806	3.007690	89.287000
47.965611	3.021643	89.334000
47.990739	3.033651	89.379000
48.015895	3.046668	89.426000
48.040624	3.053809	89.471000
48.065841	3.060896	89.517000
48.090463	3.067992	89.564000
48.114163	3.073037	89.610000
48.140582	3.084223	89.656000
48.342930	3.208372	89.702000
48.367417	3.216845	90.076000
48.459280	3.227951	90.122000
48.484586	3.289518	90.291000
48.509127	3.304030	90.337000
48.534571	3.321395	90.383000
48.560045	3.337327	90.430000
48.583710	3.354812	90.476000
48.609300	3.362028	90.522000
48.634098	3.376369	90.569000
48.658728	3.390746	90.614000
48.684167	3.394209	90.661000
48.709561	3.416501	90.707000
48.734709	3.423687	90.753000
48.823134	3.490533	90.799000
48.848643	3.504231	90.963000
48.873000	3.522748	91.010000
48.898405	3.537918	91.055000
48.923561	3.550469	91.101000
48.947745	3.564882	91.148000
48.972209	3.588634	91.194000
49.171206	3.606376	91.239000
49.196293	3.734619	91.606000
49.221041	3.750236	91.652000
49.246950	3.764642	91.698000
49.271783	3.776840	91.744000
49.295805	3.796653	91.790000
49.320638	3.810451	91.836000
49.345379	3.827447	91.882000
49.430611	3.885360	91.928000
49.455229	3.895695	92.084000
49.479762	3.917074	92.130000
49.504964	3.934616	92.176000
49.530800	3.948918	92.222000
49.554830	3.979376	92.268000
49.650689	3.991042	92.314000
49.675460	4.071116	92.491000
49.699041	4.090968	92.537000
49.724715	4.116515	92.583000
49.750024	4.135186	92.628000
49.775065	4.159797	92.674000
49.799886	4.183938	92.720000
49.824592	4.205989	92.766000
49.849940	4.230671	92.812000
49.873639	4.255203	92.858000
49.898607	4.281482	92.904000
49.923958	4.303349	92.950000
50.014274	4.405386	92.996000
50.039206	4.420741	93.163000
50.064266	4.449338	93.209000
50.089314	4.478349	93.256000
50.114005	4.507912	93.301000
50.139875	4.538275	93.348000
50.165200	4.567614	93.394000
50.249141	4.599076	93.440000
50.273133	4.695921	93.595000
50.297447	4.722198	93.641000
50.323475	4.751232	93.688000
50.348681	4.784764	93.734000
50.373479	4.808186	93.780000
50.398504	4.843974	93.826000
50.424447	4.868712	93.872000
50.448500	4.897964	93.917000
50.473283	4.928738	93.964000
50.497843	4.960944	94.010000
50.522607	4.990892	94.056000
50.610218	5.111028	94.102000
50.635312	5.140407	94.264000
50.660026	5.173009	94.310000
50.685185	5.208271	94.355000
50.710276	5.237753	94.400000
50.735335	5.276570	94.447000
50.758989	5.307488	94.492000
50.842443	5.346029	94.537000
50.867744	5.460255	94.693000
50.893876	5.489808	94.739000
50.919112	5.527931	94.786000
50.943903	5.562086	94.833000
50.969012	5.600195	94.878000
50.993899	5.637309	94.925000
51.018125	5.672861	94.971000
51.043215	5.715487	95.016000
51.068816	5.758901	95.063000
51.092912	5.798030	95.109000
51.118659	5.833500	95.156000
51.320592	6.182279	95.202000
51.345594	6.220925	95.576000
51.437949	6.266008	95.621000
51.462874	6.419537	95.791000
51.486958	6.462759	95.837000
51.511437	6.506464	95.883000
51.536931	6.547448	95.929000
51.561626	6.587034	95.974000
51.586854	6.624479	96.020000
51.612367	6.664356	96.066000
51.637315	6.710859	96.112000
51.661756	6.749913	96.158000
51.686324	6.793999	96.204000
51.711491	6.842174	96.250000
51.801930	7.001408	96.297000
51.827477	7.043827	96.463000
51.851818	7.090948	96.510000
51.876006	7.132008	96.555000
51.901280	7.172621	96.601000
51.926302	7.215421	96.648000
51.951688	7.254799	96.694000
52.150201	7.298763	96.740000
52.175814	7.654042	97.107000
52.200213	7.701334	97.153000
52.225127	7.745052	97.199000
52.249983	7.787872	97.245000
52.274220	7.836768	97.291000
52.299479	7.884768	97.337000
52.397831	8.083408	97.383000
52.422196	8.123366	97.564000
52.446852	8.169052	97.610000
52.472607	8.222046	97.655000
52.497359	8.272218	97.701000
52.522423	8.317844	97.747000
52.548081	8.369213	97.793000
52.631013	8.426217	97.840000
52.655738	8.612934	97.993000
52.681193	8.675967	98.041000
52.705976	8.740506	98.087000
52.731178	8.786523	98.133000
52.756587	8.844582	98.179000
52.782104	8.897308	98.225000
52.806192	8.956961	98.271000
52.831920	9.000620	98.318000
52.856465	9.049960	98.364000
52.880806	9.098410	98.410000
52.905812	9.148585	98.455000
52.992585	9.314128	98.501000
53.018071	9.360147	98.662000
53.043169	9.412440	98.708000
53.068593	9.466860	98.755000
53.093173	9.521744	98.800000
53.118889	9.581650	98.847000
53.144252	9.636876	98.893000
53.226627	9.695017	98.939000
53.252182	9.899244	99.094000
53.276435	9.964280	99.140000
53.302047	10.010908	99.186000
53.327518	10.071973	99.232000
53.351990	10.130800	99.278000
53.376055	10.188914	99.324000
53.401295	10.252177	99.370000
53.426466	10.311802	99.416000
53.451030	10.367663	99.463000
53.476189	10.436592	99.509000
53.502013	10.506911	99.555000
53.589270	10.749542	99.601000
53.615167	10.822855	99.764000
53.640654	10.889782	99.809000
53.665429	10.957744	99.857000
53.690377	11.028469	99.903000
53.715571	11.100312	99.949000
53.740204	11.175701	99.996000
53.824161	11.253290	100.042000
53.848583	11.497266	100.196000
53.874288	11.567779	100.242000
53.900074	11.641068	100.289000
53.924284	11.712320	100.335000
53.948756	11.783236	100.381000
53.974066	11.860332	100.428000
53.998975	11.933816	100.474000
54.023808	12.011842	100.520000
54.048749	12.098016	100.566000
54.074162	12.186698	100.612000
54.099229	12.268230	100.658000
54.300048	12.926487	100.704000
54.325495	13.008617	101.076000
54.416483	13.097737	101.121000
54.441396	13.405035	101.291000
54.466368	13.489901	101.337000
54.491216	13.570703	101.383000
54.516733	13.653022	101.430000
54.542357	13.734619	101.476000
54.567974	13.817502	101.522000
54.592315	13.904762	101.569000
54.617547	13.997759	101.615000
54.641827	14.090526	101.661000
54.665765	14.185435	101.706000
54.691028	14.285703	101.752000
54.780552	14.647351	101.798000
54.805154	14.743775	101.964000
54.830802	14.837979	102.010000
54.855784	14.939587	102.056000
54.880863	15.030522	102.102000
54.906372	15.130248	102.148000
54.931413	15.232484	102.194000
55.129508	15.334675	102.240000
55.154571	16.176430	102.607000
55.179815	16.277952	102.652000
55.203153	16.384286	102.699000
55.229377	16.490140	102.744000
55.253864	16.592677	102.791000
55.278966	16.699944	102.837000
55.376323	17.110985	102.883000
55.401502	17.222507	103.063000
55.426512	17.330502	103.109000
55.451440	17.444195	103.156000
55.477660	17.564323	103.202000
55.502313	17.678599	103.248000
55.526854	17.792146	103.295000
55.610534	17.907225	103.340000
55.635321	18.317730	103.495000
55.660477	18.439290	103.541000
55.685847	18.558622	103.588000
55.710972	18.685382	103.633000
55.735110	18.807827	103.679000
55.760250	18.931641	103.724000
55.784453	19.048586	103.771000
55.809067	19.159223	103.817000
55.834730	19.274666	103.863000
55.859520	19.398251	103.908000
55.884803	19.521839	103.955000
55.972310	19.968455	104.001000
55.998380	20.086667	104.164000
56.022571	20.209681	104.210000
56.048126	20.344408	104.256000
56.072690	20.478771	104.302000
56.097081	20.610904	104.349000
56.122398	20.747535	104.394000
56.206006	20.875976	104.441000
56.231799	21.327691	104.595000
56.257012	21.473276	104.642000
56.282491	21.610667	104.688000
56.307243	21.748508	104.735000
56.331381	21.888735	104.781000
56.355829	22.022453	104.826000
56.380232	22.165064	104.872000
56.406629	22.298947	104.918000
56.431719	22.448632	104.965000
56.456275	22.590003	105.011000
56.481450	22.734177	105.057000
56.568972	23.259498	105.102000
56.593271	23.402429	105.263000
56.618139	23.552120	105.309000
56.642587	23.710917	105.355000
56.667048	23.871134	105.402000
56.692361	24.038468	105.448000
56.717901	24.212148	105.493000
56.801570	24.387529	105.538000
56.826472	24.937170	105.693000
56.850509	25.100375	105.740000
56.876307	25.272111	105.786000
56.901524	25.435645	105.833000
56.926046	25.606223	105.879000
56.951881	25.777987	105.925000
56.964624	26.039917	105.972000
57.002139	26.129619	106.019000
57.026829	26.303578	106.065000
57.052477	26.480689	106.111000
57.077579	26.655840	106.157000
57.278616	28.005960	106.204000
57.303495	28.167644	106.576000
57.395201	28.332882	106.622000
57.419938	28.959839	106.790000
57.445255	29.130061	106.836000
57.470618	29.304116	106.883000
57.495071	29.458926	106.929000
57.520465	29.607735	106.975000
57.544890	29.759936	107.021000
57.568866	29.927582	107.067000
57.594426	30.103251	107.113000
57.619992	30.278259	107.159000
57.645728	30.458816	107.206000
57.669927	30.637426	107.253000
57.759570	31.278640	107.298000
57.784288	31.455859	107.464000
57.809612	31.635621	107.509000
57.834710	31.820487	107.556000
57.860358	32.013082	107.602000
57.885287	32.204035	107.649000
57.910020	32.393749	107.695000
58.109067	32.588265	107.741000
58.133554	34.170441	108.109000
58.159121	34.348306	108.156000
58.183747	34.529727	108.202000
58.208407	34.719147	108.247000
58.234085	34.915357	108.293000
58.259432	35.115703	108.339000
58.355268	35.894064	108.386000
58.380140	36.098709	108.564000
58.406229	36.307456	108.610000
58.430443	36.520053	108.656000
58.454239	36.730601	108.701000
58.479771	36.940042	108.746000
58.504635	37.154877	108.793000
58.589114	37.375682	108.839000
58.613759	38.109392	108.993000
58.638434	38.335733	109.039000
58.663087	38.563549	109.086000
58.687793	38.792008	109.132000
58.711919	39.018659	109.178000
58.737094	39.239348	109.224000
58.762849	39.457820	109.270000
58.788231	39.670550	109.316000
58.813402	39.871902	109.363000
58.838392	40.064382	109.408000
58.862342	40.264088	109.454000
58.951013	41.028399	109.500000
