Sample	2mm tape 
date	08/01/2025
	
Temperature (K)	77.00
Angle (deg.)	0.000000
field / T	0.150000
	
		
Approx. trace time (s)	120.0	
		
Current / A	V1  -sample/ uV	time/s
-0.016197	2.334673	0.000000
-0.016031	2.340278	0.045000
-0.016074	2.344545	0.091000
-0.016050	2.349165	0.136000
-0.016001	2.352248	0.182000
-0.016092	2.356464	0.229000
-0.016227	2.366321	0.383000
-0.016141	2.373793	0.429000
-0.006365	2.372241	0.585000
-0.016178	2.374606	0.631000
-0.017044	2.370779	0.676000
-0.016387	2.370456	0.722000
-0.016994	2.367125	0.769000
-0.016816	2.366922	0.815000
-0.017516	2.366750	0.861000
-0.016712	2.365704	0.907000
-0.017528	2.365664	0.954000
-0.016681	2.362191	1.000000
-0.017087	2.359715	1.046000
-0.017209	2.357142	1.092000
-0.015768	2.353133	1.139000
0.016408	2.351491	1.185000
0.041955	2.348544	1.232000
0.066743	2.347699	1.278000
0.151326	2.346562	1.324000
0.175381	2.340891	1.478000
0.259903	2.336311	1.524000
0.284337	2.333925	1.680000
0.309871	2.332990	1.726000
0.334806	2.333622	1.772000
0.359767	2.334461	1.819000
0.385283	2.338878	1.865000
0.410905	2.340178	1.911000
0.435568	2.344323	1.957000
0.460595	2.345031	2.003000
0.485092	2.346370	2.050000
0.509939	2.349034	2.096000
0.534707	2.352941	2.142000
0.559983	2.355226	2.189000
0.585236	2.361438	2.235000
0.610032	2.364982	2.280000
0.635645	2.366781	2.327000
0.660799	2.369349	2.373000
0.744670	2.374839	2.420000
0.768978	2.391045	2.575000
0.854350	2.410500	2.621000
0.879670	2.417770	2.778000
0.904672	2.422333	2.824000
0.930051	2.428102	2.871000
0.955181	2.435309	2.917000
0.980482	2.440663	2.964000
1.005563	2.446226	3.010000
1.029766	2.451783	3.056000
1.055062	2.458058	3.103000
1.079979	2.462499	3.149000
1.105435	2.464230	3.195000
1.130388	2.465652	3.241000
1.156076	2.467960	3.288000
1.181093	2.469666	3.334000
1.206395	2.469998	3.380000
1.231561	2.471765	3.427000
1.256115	2.474411	3.473000
1.455308	2.477645	3.519000
1.479984	2.497688	3.888000
1.505273	2.500969	3.934000
1.530287	2.505138	3.980000
1.555225	2.509281	4.026000
1.580557	2.515757	4.072000
1.605130	2.520623	4.118000
1.630476	2.525246	4.164000
1.655140	2.528936	4.210000
1.679871	2.531440	4.256000
1.704627	2.534276	4.302000
1.729474	2.535079	4.348000
1.754868	2.537532	4.394000
1.780029	2.541000	4.440000
1.805148	2.543180	4.485000
1.830008	2.546455	4.532000
1.855378	2.549141	4.579000
1.937842	2.550731	4.625000
1.963279	2.557998	4.779000
2.162323	2.603802	4.826000
2.187590	2.611413	5.193000
2.212407	2.623805	5.239000
2.237844	2.634945	5.285000
2.263139	2.642421	5.332000
2.287348	2.650418	5.378000
2.311524	2.665618	5.423000
2.336895	2.676147	5.470000
2.361701	2.686666	5.516000
2.387549	2.697651	5.562000
2.412392	2.709019	5.608000
2.438117	2.719265	5.655000
2.532114	2.730628	5.701000
2.557386	2.770931	5.875000
2.641226	2.800648	5.921000
2.665928	2.807629	6.078000
2.691371	2.813734	6.124000
2.716249	2.820038	6.170000
2.742232	2.826933	6.217000
2.766999	2.830800	6.263000
2.792497	2.832241	6.310000
2.817439	2.844171	6.356000
2.841652	2.843848	6.402000
2.866825	2.843197	6.448000
2.891516	2.847292	6.495000
2.917221	2.852264	6.541000
2.942616	2.855438	6.588000
2.967831	2.858063	6.634000
2.993164	2.857643	6.681000
3.018520	2.860648	6.727000
3.043583	2.861070	6.773000
3.127166	2.862287	6.819000
3.152168	2.858073	6.974000
3.237179	2.846573	7.021000
3.262672	2.843989	7.178000
3.287432	2.838089	7.224000
3.312459	2.837033	7.270000
3.337888	2.834516	7.317000
3.362834	2.833439	7.363000
3.387200	2.832994	7.409000
3.411546	2.830396	7.455000
3.436579	2.826913	7.501000
3.461614	2.824881	7.547000
3.487333	2.821772	7.593000
3.512493	2.818638	7.639000
3.537334	2.817723	7.685000
3.562777	2.814645	7.731000
3.587179	2.810637	7.777000
3.611654	2.807417	7.824000
3.636459	2.806658	7.870000
3.722837	2.809014	7.916000
3.748078	2.812391	8.076000
3.832806	2.812597	8.122000
3.858538	2.809641	8.278000
3.883754	2.811072	8.324000
3.908469	2.809125	8.371000
3.932717	2.807103	8.417000
3.957609	2.807876	8.462000
3.983257	2.807002	8.509000
4.007976	2.807133	8.556000
4.033670	2.807174	8.603000
4.058708	2.806952	8.648000
4.084200	2.806759	8.694000
4.109287	2.810232	8.740000
4.133983	2.814423	8.787000
4.158624	2.837376	8.834000
4.183300	2.819447	8.879000
4.208811	2.823643	8.926000
4.233814	2.833004	8.972000
4.433570	2.837285	9.019000
4.458805	2.838150	9.387000
4.483972	2.836088	9.434000
4.509115	2.833540	9.479000
4.534262	2.830108	9.525000
4.559699	2.828394	9.572000
4.583871	2.825543	9.618000
4.609072	2.819397	9.664000
4.633280	2.814170	9.711000
4.658613	2.806300	9.756000
4.683608	2.800269	9.803000
4.709234	2.793976	9.849000
4.734394	2.784482	9.895000
4.759483	2.775733	9.941000
4.784195	2.768126	9.987000
4.808483	2.763475	10.033000
4.832822	2.755211	10.080000
4.917850	2.747588	10.126000
4.942840	2.723324	10.280000
5.142070	2.674468	10.327000
5.167184	2.667760	10.694000
5.191805	2.659455	10.741000
5.217114	2.648370	10.787000
5.241677	2.636512	10.834000
5.266354	2.625364	10.880000
5.291545	2.618368	10.926000
5.317472	2.610737	10.972000
5.342664	2.604674	11.019000
5.367640	2.600213	11.065000
5.393218	2.594807	11.112000
5.418047	2.590199	11.158000
5.510070	2.584935	11.204000
5.535071	2.571352	11.375000
5.619891	2.560850	11.422000
5.645144	2.557886	11.577000
5.670310	2.553384	11.623000
5.695596	2.552699	11.670000
5.720714	2.549922	11.716000
5.745784	2.543814	11.763000
5.769864	2.542175	11.808000
5.794907	2.535048	11.856000
5.820362	2.531389	11.902000
5.845499	2.526402	11.948000
5.870711	2.518855	11.994000
5.896046	2.512027	12.040000
5.921489	2.507622	12.087000
5.946313	2.498853	12.133000
5.971866	2.490864	12.180000
5.996023	2.485004	12.225000
6.020851	2.478598	12.273000
6.106059	2.476186	12.318000
6.131010	2.454826	12.475000
6.216061	2.433525	12.520000
6.241546	2.424583	12.678000
6.266548	2.417547	12.725000
6.291648	2.410600	12.770000
6.316512	2.398363	12.818000
6.341367	2.393075	12.864000
6.366312	2.382414	12.910000
6.391577	2.373877	12.957000
6.417043	2.362838	13.003000
6.442053	2.350403	13.050000
6.467385	2.339221	13.095000
6.492967	2.328267	13.142000
6.518131	2.316408	13.188000
6.542113	2.305111	13.235000
6.566850	2.294344	13.281000
6.591562	2.284442	13.327000
6.616963	2.276404	13.372000
6.702062	2.266179	13.420000
6.727559	2.236532	13.575000
6.811886	2.210560	13.622000
6.837290	2.203130	13.778000
6.861721	2.195406	13.824000
6.886819	2.187548	13.871000
6.911987	2.180583	13.918000
6.937505	2.175323	13.964000
6.963064	2.171225	14.011000
6.987938	2.166742	14.056000
7.013166	2.165733	14.104000
7.038454	2.166661	14.150000
7.062916	2.166087	14.196000
7.087800	2.166854	14.241000
7.112348	2.170210	14.287000
7.137727	2.167827	14.335000
7.163134	2.167424	14.380000
7.188308	2.171487	14.427000
7.213397	2.172819	14.473000
7.412691	2.172521	14.519000
7.438226	2.168388	14.887000
7.462561	2.164460	14.934000
7.487967	2.164850	14.980000
7.512827	2.161362	15.026000
7.537615	2.160993	15.072000
7.562647	2.157093	15.118000
7.587457	2.153140	15.164000
7.612379	2.149825	15.210000
7.637515	2.148173	15.255000
7.662411	2.150027	15.301000
7.686567	2.149001	15.346000
7.710890	2.148990	15.392000
7.736137	2.146530	15.439000
7.761010	2.145242	15.484000
7.786381	2.144107	15.530000
7.811923	2.144006	15.577000
7.896130	2.144555	15.623000
7.920564	2.135480	15.779000
8.119803	2.126143	15.825000
8.144559	2.123599	16.193000
8.169671	2.123296	16.239000
8.194672	2.123579	16.285000
8.219603	2.124239	16.331000
8.245058	2.127471	16.378000
8.270017	2.126313	16.424000
8.295512	2.128202	16.469000
8.320513	2.128202	16.516000
8.345163	2.130241	16.563000
8.369765	2.132936	16.609000
8.394840	2.137029	16.656000
8.489254	2.139401	16.701000
8.514126	2.142658	16.875000
8.599939	2.144504	16.922000
8.625621	2.145953	17.078000
8.650530	2.143520	17.125000
8.675482	2.145882	17.172000
8.700257	2.145730	17.219000
8.724799	2.145629	17.265000
8.750305	2.145831	17.311000
8.775545	2.143182	17.358000
8.801046	2.144267	17.404000
8.826152	2.144066	17.450000
8.851674	2.147916	17.497000
8.876399	2.142698	17.543000
8.901388	2.141370	17.589000
8.925783	2.141228	17.634000
8.951054	2.141955	17.682000
8.975750	2.144176	17.728000
9.001042	2.142172	17.774000
9.085252	2.142939	17.821000
9.110577	2.142929	17.975000
9.195831	2.147048	18.022000
9.220600	2.143297	18.179000
9.244935	2.146216	18.225000
9.269974	2.143662	18.271000
9.295080	2.145352	18.317000
9.320320	2.148153	18.363000
9.345456	2.148689	18.409000
9.370867	2.153393	18.455000
9.396170	2.152146	18.502000
9.421410	2.151742	18.548000
9.445598	2.151641	18.595000
9.470546	2.154871	18.641000
9.495995	2.153715	18.688000
9.520722	2.153745	18.734000
9.546509	2.157111	18.780000
9.571185	2.155067	18.827000
9.597021	2.156294	18.873000
9.681039	2.155907	18.919000
9.706036	2.164698	19.075000
9.790800	2.162831	19.122000
9.815510	2.163326	19.279000
9.841399	2.166309	19.325000
9.865915	2.171306	19.371000
9.890965	2.174470	19.417000
9.916019	2.175686	19.463000
9.940862	2.180542	19.508000
9.965643	2.185297	19.554000
9.990203	2.190112	19.601000
10.015751	2.193357	19.648000
10.040613	2.197160	19.694000
10.066179	2.200855	19.740000
10.090856	2.205344	19.786000
10.116080	2.209933	19.831000
10.141001	2.211637	19.877000
10.165369	2.216217	19.923000
10.189900	2.220847	19.969000
10.391855	2.229526	20.015000
10.416715	2.274635	20.387000
10.440772	2.281050	20.433000
10.465801	2.288475	20.479000
10.491108	2.293146	20.525000
10.516253	2.298635	20.572000
10.542077	2.304065	20.618000
10.566790	2.310530	20.665000
10.592150	2.314634	20.711000
10.617026	2.326695	20.756000
10.641217	2.335748	20.803000
10.666255	2.342117	20.849000
10.691053	2.347764	20.895000
10.716458	2.355518	20.941000
10.741833	2.362160	20.988000
10.767075	2.367417	21.034000
10.791876	2.376698	21.080000
10.874789	2.383071	21.126000
10.899808	2.406698	21.281000
11.099241	2.465171	21.328000
11.124795	2.471946	21.696000
11.149869	2.479627	21.741000
11.174815	2.483938	21.788000
11.199908	2.488420	21.834000
11.225324	2.491085	21.880000
11.250687	2.494178	21.927000
11.275574	2.498852	21.972000
11.300073	2.502573	22.019000
11.324899	2.508301	22.065000
11.350664	2.511565	22.112000
11.376108	2.516542	22.159000
11.468038	2.518930	22.206000
11.493682	2.531469	22.375000
11.578464	2.542336	22.422000
11.603364	2.545884	22.579000
11.627599	2.544837	22.625000
11.653236	2.544817	22.671000
11.677864	2.543783	22.717000
11.703209	2.547731	22.763000
11.728695	2.546444	22.809000
11.753881	2.548795	22.856000
11.778780	2.547791	22.902000
11.804303	2.548765	22.949000
11.828925	2.551653	22.995000
11.853375	2.549643	23.041000
11.878412	2.547200	23.088000
11.903789	2.541679	23.134000
11.928846	2.536375	23.181000
11.954749	2.530192	23.227000
11.980094	2.525558	23.272000
12.064336	2.518078	23.320000
12.088411	2.499176	23.475000
12.173475	2.480651	23.521000
12.198899	2.473636	23.679000
12.223938	2.469351	23.725000
12.249853	2.464526	23.772000
12.274568	2.459099	23.818000
12.299949	2.452877	23.864000
12.325050	2.446663	23.910000
12.350162	2.440132	23.957000
12.374773	2.434580	24.004000
12.399558	2.428230	24.049000
12.425002	2.420121	24.096000
12.450021	2.415081	24.142000
12.475753	2.408127	24.189000
12.500749	2.400556	24.235000
12.525659	2.397356	24.281000
12.550815	2.391084	24.327000
12.575621	2.384860	24.374000
12.659161	2.379002	24.420000
12.779559	2.364086	24.575000
12.804751	2.344088	24.797000
12.830110	2.340514	24.844000
12.854645	2.336481	24.889000
12.880457	2.330991	24.936000
12.905115	2.327721	24.982000
12.929521	2.322959	25.028000
12.954201	2.319800	25.073000
12.979303	2.313749	25.120000
13.004650	2.312005	25.167000
13.029758	2.308063	25.213000
13.054930	2.302219	25.259000
13.080448	2.298625	25.304000
13.105432	2.296320	25.352000
13.130433	2.293105	25.398000
13.154619	2.291558	25.444000
13.179408	2.290522	25.490000
13.378217	2.286786	25.536000
13.403223	2.225713	25.903000
13.428366	2.243168	25.949000
13.453655	2.255997	25.996000
13.479164	2.266844	26.042000
13.504645	2.276509	26.088000
13.529671	2.282181	26.135000
13.554486	2.283616	26.181000
13.578802	2.286710	26.227000
13.603674	2.289657	26.273000
13.628500	2.295940	26.319000
13.654179	2.300793	26.366000
13.679216	2.308169	26.412000
13.704851	2.316863	26.458000
13.730054	2.323105	26.505000
13.755423	2.333655	26.552000
13.851403	2.339337	26.599000
13.876755	2.369939	26.775000
14.076378	2.436295	26.822000
14.101470	2.440766	27.191000
14.127104	2.443825	27.237000
14.151291	2.451755	27.284000
14.176108	2.454641	27.329000
14.201386	2.458240	27.377000
14.226281	2.457402	27.422000
14.251700	2.460169	27.469000
14.276899	2.463045	27.516000
14.302678	2.465786	27.562000
14.327306	2.466472	27.608000
14.352928	2.469526	27.654000
14.446599	2.473781	27.701000
14.471449	2.496655	27.875000
14.556116	2.513941	27.922000
14.581786	2.516204	28.079000
14.606818	2.518796	28.125000
14.631672	2.521932	28.171000
14.657088	2.523961	28.217000
14.681929	2.525602	28.263000
14.707513	2.531098	28.310000
14.731612	2.537774	28.356000
14.756644	2.539745	28.402000
14.781605	2.541434	28.449000
14.806972	2.542056	28.494000
14.831910	2.547764	28.541000
14.857254	2.548199	28.587000
14.882783	2.550751	28.634000
14.908123	2.550680	28.680000
14.933603	2.552099	28.727000
14.958315	2.554259	28.773000
15.042617	2.555134	28.819000
15.067809	2.552721	28.975000
15.152942	2.541773	29.022000
15.178835	2.543172	29.179000
15.203922	2.546376	29.225000
15.229190	2.554330	29.271000
15.254185	2.555073	29.317000
15.277796	2.555083	29.363000
15.303006	2.556208	29.409000
15.328093	2.559125	29.456000
15.353268	2.556097	29.502000
15.378759	2.555093	29.548000
15.403665	2.559044	29.594000
15.429252	2.559206	29.641000
15.453723	2.561796	29.687000
15.478933	2.564785	29.733000
15.503388	2.567136	29.780000
15.528347	2.565809	29.825000
15.553004	2.566651	29.872000
15.638736	2.563951	29.918000
15.663734	2.564632	30.075000
15.749335	2.562562	30.121000
15.774710	2.562593	30.278000
15.799081	2.556229	30.325000
15.823838	2.560852	30.371000
15.848192	2.563133	30.417000
15.873652	2.559970	30.463000
15.898636	2.558963	30.508000
15.924232	2.557940	30.555000
15.948787	2.554871	30.601000
15.973798	2.552120	30.647000
15.999009	2.550106	30.694000
16.023126	2.548300	30.739000
16.048109	2.547845	30.786000
16.073244	2.545291	30.832000
16.098430	2.545473	30.878000
16.123590	2.546028	30.923000
16.148807	2.543993	30.970000
16.349916	2.545432	31.016000
16.374860	2.546547	31.388000
16.399474	2.546446	31.433000
16.425103	2.547192	31.480000
16.450212	2.544670	31.526000
16.475243	2.543983	31.573000
16.499555	2.542645	31.619000
16.524440	2.541893	31.665000
16.549774	2.540505	31.711000
16.574880	2.541701	31.757000
16.600151	2.540919	31.804000
16.625499	2.541091	31.850000
16.650614	2.538143	31.896000
16.674919	2.539319	31.942000
16.700320	2.538143	31.988000
16.724450	2.546304	32.035000
16.750113	2.542428	32.081000
16.834360	2.541731	32.128000
16.859308	2.554930	32.282000
17.058448	2.578471	32.328000
17.083481	2.581339	32.697000
17.108805	2.586023	32.742000
17.132956	2.588223	32.788000
17.158137	2.588626	32.835000
17.183035	2.591539	32.880000
17.208369	2.591438	32.927000
17.233223	2.591741	32.973000
17.258685	2.593739	33.019000
17.283844	2.597227	33.066000
17.309046	2.604147	33.112000
17.333796	2.605732	33.158000
17.425661	2.607151	33.205000
17.451288	2.617249	33.374000
17.536372	2.620732	33.422000
17.561438	2.621181	33.579000
17.586912	2.625084	33.625000
17.611889	2.625446	33.671000
17.637187	2.625936	33.718000
17.661926	2.626452	33.764000
17.686394	2.625376	33.810000
17.711705	2.629649	33.856000
17.736332	2.629407	33.903000
17.762172	2.632318	33.948000
17.787291	2.630402	33.996000
17.812581	2.631782	34.042000
17.837746	2.631434	34.088000
17.862863	2.633284	34.135000
17.887835	2.636888	34.181000
17.912255	2.637934	34.227000
17.937349	2.640694	34.273000
18.022143	2.643984	34.319000
18.047003	2.652907	34.475000
18.132286	2.666909	34.521000
18.157584	2.673449	34.678000
18.181813	2.676912	34.724000
18.206796	2.682230	34.771000
18.232063	2.689448	34.818000
18.256654	2.691865	34.863000
18.282194	2.696140	34.909000
18.307190	2.702091	34.956000
18.332626	2.705133	35.003000
18.357640	2.710223	35.048000
18.382807	2.714748	35.095000
18.407111	2.718098	35.141000
18.432035	2.723144	35.187000
18.457185	2.723947	35.234000
18.482137	2.726803	35.280000
18.507690	2.726617	35.326000
18.532893	2.729522	35.372000
18.617969	2.729472	35.420000
18.643382	2.732667	35.576000
18.727575	2.728870	35.622000
18.752725	2.728304	35.779000
18.777502	2.727753	35.825000
18.802719	2.727419	35.871000
18.828082	2.725186	35.918000
18.853140	2.721490	35.964000
18.878599	2.714994	36.010000
18.903486	2.710941	36.057000
18.928960	2.706780	36.103000
18.953204	2.702939	36.148000
18.978311	2.697257	36.195000
19.002741	2.693896	36.241000
19.027931	2.687284	36.287000
19.053161	2.684332	36.333000
19.078156	2.680971	36.380000
19.103599	2.676694	36.426000
19.128792	2.670148	36.472000
19.328569	2.669487	36.519000
19.353688	2.621516	36.888000
19.378471	2.616397	36.934000
19.402764	2.612677	36.980000
19.427643	2.607644	37.026000
19.453105	2.603299	37.072000
19.478445	2.596284	37.119000
19.503785	2.591221	37.165000
19.529075	2.586395	37.211000
19.554365	2.584594	37.258000
19.579918	2.581309	37.304000
19.604298	2.573859	37.351000
19.629109	2.567106	37.397000
19.653234	2.561406	37.443000
19.678618	2.555465	37.489000
19.704098	2.551957	37.536000
19.729033	2.548267	37.582000
19.813585	2.547354	37.629000
19.838184	2.550187	37.783000
20.038081	2.543735	37.829000
20.063438	2.548460	38.198000
20.087985	2.553664	38.245000
20.112829	2.557837	38.291000
20.138133	2.559605	38.337000
20.163311	2.561846	38.383000
20.188204	2.563345	38.429000
20.213819	2.561704	38.475000
20.238630	2.564228	38.522000
20.263705	2.565005	38.568000
20.288901	2.568851	38.615000
20.313719	2.568674	38.661000
20.404921	2.572683	38.707000
20.430114	2.580173	38.875000
20.515348	2.591539	38.921000
20.540638	2.592644	39.079000
20.564637	2.597894	39.124000
20.589651	2.597196	39.171000
20.614232	2.601443	39.217000
20.639684	2.604208	39.262000
20.665099	2.603592	39.310000
20.690262	2.605904	39.355000
20.715166	2.605863	39.401000
20.740076	2.605681	39.447000
20.764131	2.606635	39.492000
20.788831	2.608620	39.539000
20.813996	2.610932	39.585000
20.838785	2.614948	39.631000
20.864110	2.616366	39.676000
20.889139	2.617320	39.722000
20.914550	2.616569	39.769000
21.001087	2.615342	39.816000
21.025802	2.611298	39.975000
21.110545	2.604677	40.021000
21.134982	2.603845	40.178000
21.160334	2.599131	40.224000
21.185457	2.597287	40.271000
21.210685	2.599842	40.317000
21.235676	2.599882	40.363000
21.261139	2.597206	40.409000
21.286283	2.596021	40.456000
21.310701	2.595502	40.502000
21.335242	2.598176	40.548000
21.360305	2.598656	40.594000
21.385657	2.596888	40.640000
21.410088	2.600699	40.686000
21.435657	2.602163	40.732000
21.460878	2.602699	40.778000
21.486014	2.600699	40.824000
21.510674	2.605201	40.870000
21.595836	2.606908	40.917000
21.620636	2.617113	41.075000
21.706393	2.623685	41.122000
21.731096	2.627557	41.279000
21.756637	2.630064	41.325000
21.781666	2.633354	41.371000
21.807129	2.638025	41.418000
21.832002	2.641467	41.464000
21.857736	2.649192	41.510000
21.881847	2.651915	41.557000
21.906342	2.653771	41.603000
21.931853	2.654614	41.649000
21.957348	2.657466	41.696000
21.982646	2.657733	41.742000
22.007683	2.657031	41.789000
22.032836	2.654766	41.834000
22.057733	2.651997	41.881000
22.082961	2.650738	41.927000
22.107470	2.645905	41.973000
22.306519	2.642084	42.020000
22.331394	2.619783	42.388000
22.356452	2.618971	42.434000
22.381298	2.617624	42.479000
22.406752	2.617978	42.526000
22.432263	2.616018	42.572000
22.457561	2.614328	42.618000
22.482244	2.606319	42.665000
22.508189	2.600408	42.711000
22.532574	2.596556	42.757000
22.557388	2.591499	42.804000
22.582200	2.586795	42.850000
22.607709	2.579435	42.897000
22.633312	2.576656	42.943000
22.658206	2.570654	42.989000
22.683206	2.567807	43.036000
22.708558	2.561487	43.081000
22.791324	2.556067	43.128000
22.816689	2.545007	43.282000
23.015737	2.514541	43.329000
23.041048	2.514975	43.697000
23.066405	2.510645	43.743000
23.091713	2.507643	43.789000
23.117164	2.503402	43.836000
23.142370	2.503619	43.882000
23.167583	2.498597	43.928000
23.191824	2.496887	43.975000
23.216356	2.488422	44.021000
23.241064	2.493630	44.067000
23.266481	2.489801	44.113000
23.291677	2.484480	44.158000
23.384485	2.481154	44.205000
23.408978	2.477626	44.375000
23.493094	2.474501	44.421000
23.518673	2.470429	44.579000
23.543281	2.469808	44.624000
23.568809	2.465795	44.670000
23.593727	2.463676	44.716000
23.619249	2.458138	44.763000
23.644151	2.457685	44.809000
23.669057	2.455151	44.855000
23.693610	2.453060	44.901000
23.718143	2.451592	44.948000
23.743174	2.450325	44.994000
23.768606	2.453021	45.040000
23.793429	2.450647	45.086000
23.818662	2.452222	45.132000
23.844123	2.452086	45.178000
23.869000	2.452586	45.224000
23.893414	2.453081	45.269000
23.979450	2.453293	45.316000
24.003722	2.451975	45.474000
24.089400	2.455009	45.521000
24.114876	2.453408	45.679000
24.139721	2.452900	45.725000
24.165176	2.452688	45.771000
24.190236	2.452819	45.817000
24.214882	2.454066	45.863000
24.238689	2.454756	45.909000
24.263885	2.455675	45.954000
24.288762	2.456276	46.000000
24.313553	2.458325	46.047000
24.338920	2.456912	46.092000
24.363955	2.457473	46.137000
24.388465	2.458699	46.183000
24.412262	2.457017	46.229000
24.437422	2.460899	46.275000
24.461846	2.460359	46.320000
24.487026	2.466941	46.366000
24.575085	2.469989	46.412000
24.600040	2.486464	46.575000
24.685761	2.499311	46.621000
24.710313	2.504489	46.778000
24.735371	2.508406	46.824000
24.759787	2.513983	46.870000
24.784697	2.517318	46.916000
24.809305	2.522786	46.962000
24.834810	2.525661	47.009000
24.860187	2.530044	47.055000
24.885202	2.536157	47.102000
24.910446	2.539098	47.148000
24.935423	2.543752	47.193000
24.960823	2.547244	47.239000
24.985439	2.549434	47.286000
25.009899	2.554386	47.333000
25.035147	2.557476	47.379000
25.059937	2.559970	47.424000
25.085362	2.559414	47.471000
25.285541	2.562150	47.517000
25.311379	2.578815	47.888000
25.336659	2.585077	47.934000
25.361613	2.587591	47.980000
25.386972	2.592816	48.027000
25.411847	2.595178	48.073000
25.436484	2.599953	48.119000
25.448863	2.608124	48.165000
25.485757	2.610851	48.211000
25.510647	2.615392	48.257000
25.536202	2.622741	48.303000
25.561285	2.626118	48.350000
25.586454	2.632581	48.396000
25.612013	2.634401	48.441000
25.636796	2.637520	48.488000
25.661156	2.642114	48.535000
25.686141	2.642311	48.581000
25.770196	2.649221	48.627000
25.795338	2.662268	48.781000
25.994891	2.706487	48.828000
26.020297	2.712270	49.197000
26.045358	2.722243	49.242000
26.070602	2.728203	49.289000
26.095477	2.734800	49.336000
26.119997	2.740875	49.381000
26.144258	2.745446	49.427000
26.169757	2.750616	49.474000
26.195281	2.756485	49.520000
26.219565	2.765761	49.565000
26.244801	2.770573	49.611000
26.269878	2.777367	49.657000
26.361907	2.785206	49.704000
26.386678	2.808494	49.875000
26.472253	2.825586	49.921000
26.497587	2.829614	50.079000
26.522821	2.833067	50.125000
26.547992	2.836540	50.171000
26.573271	2.841630	50.217000
26.597827	2.844783	50.263000
26.622639	2.847133	50.310000
26.647128	2.851877	50.356000
26.672731	2.856667	50.402000
26.697900	2.859902	50.449000
26.722851	2.865944	50.494000
26.747935	2.870648	50.540000
26.772274	2.872006	50.586000
26.797200	2.874752	50.632000
26.820993	2.874823	50.677000
26.846274	2.881504	50.723000
26.871272	2.883417	50.769000
26.957621	2.887177	50.815000
26.982745	2.892777	50.975000
27.068789	2.895818	51.021000
27.093620	2.895778	51.179000
27.118662	2.896020	51.224000
27.143608	2.895420	51.271000
27.167803	2.895551	51.317000
27.192884	2.889816	51.363000
27.217907	2.890746	51.409000
27.242915	2.893108	51.455000
27.268389	2.892209	51.502000
27.293758	2.892033	51.548000
27.319348	2.887788	51.595000
27.344700	2.886754	51.641000
27.369533	2.883277	51.688000
27.393991	2.882842	51.734000
27.418501	2.881105	51.780000
27.443672	2.880884	51.826000
27.468638	2.879455	51.872000
27.554318	2.877905	51.919000
27.579397	2.877658	52.074000
27.664550	2.879335	52.121000
27.688986	2.881115	52.279000
27.713736	2.883085	52.325000
27.738431	2.886087	52.371000
27.763703	2.888622	52.418000
27.789458	2.891967	52.464000
27.814593	2.893295	52.511000
27.839756	2.896082	52.556000
27.864860	2.897369	52.603000
27.890192	2.900422	52.649000
27.915052	2.903280	52.695000
27.939424	2.904263	52.741000
27.964340	2.907599	52.788000
27.989320	2.906575	52.834000
28.014843	2.907933	52.880000
28.039901	2.908146	52.926000
28.064993	2.911511	52.972000
28.264914	2.911279	53.019000
28.290352	2.921102	53.388000
28.315535	2.918830	53.434000
28.340285	2.920758	53.481000
28.364930	2.923322	53.527000
28.389554	2.924296	53.572000
28.414619	2.928853	53.620000
28.440034	2.931544	53.665000
28.465339	2.935808	53.712000
28.490510	2.939665	53.759000
28.515785	2.943965	53.805000
28.541306	2.946338	53.851000
28.566041	2.951202	53.897000
28.590824	2.955766	53.943000
28.615155	2.959964	53.989000
28.640263	2.963164	54.036000
28.665874	2.964840	54.082000
28.749650	2.967757	54.128000
28.775273	2.985589	54.283000
28.974255	3.026994	54.329000
28.998953	3.030350	54.697000
29.024180	3.034872	54.742000
29.048318	3.035216	54.789000
29.073535	3.036754	54.836000
29.098302	3.036572	54.882000
29.123491	3.037518	54.928000
29.148867	3.037244	54.973000
29.174094	3.043115	55.021000
29.199630	3.048102	55.067000
29.224782	3.048524	55.114000
29.248889	3.054042	55.159000
29.340689	3.054255	55.206000
29.365983	3.055248	55.375000
29.451359	3.053799	55.422000
29.476949	3.055711	55.579000
29.502085	3.052947	55.625000
29.526659	3.050765	55.672000
29.551154	3.048513	55.718000
29.576131	3.044320	55.764000
29.601012	3.040387	55.810000
29.626607	3.038521	55.856000
29.651778	3.038096	55.903000
29.677155	3.034962	55.949000
29.702184	3.035316	55.995000
29.727103	3.032813	56.041000
29.751659	3.033125	56.088000
29.776903	3.027255	56.134000
29.801408	3.027255	56.181000
29.826594	3.029072	56.226000
29.840253	3.024978	56.273000
29.936867	3.023893	56.319000
29.962342	3.015142	56.474000
30.046865	2.996164	56.521000
30.071739	2.989728	56.679000
30.095997	2.988360	56.725000
30.121303	2.983555	56.771000
30.146479	2.980553	56.818000
30.171900	2.981992	56.864000
30.197183	2.980895	56.911000
30.222050	2.982521	56.957000
30.247085	2.985419	57.003000
30.272747	2.984666	57.049000
30.297004	2.988572	57.095000
30.321651	2.994948	57.141000
30.346887	2.998223	57.188000
30.372314	3.002275	57.235000
30.397515	3.004538	57.280000
30.423501	3.011764	57.328000
30.448843	3.015475	57.373000
30.532806	3.017322	57.420000
30.557617	3.020790	57.575000
30.641945	3.026235	57.622000
30.666880	3.025676	57.779000
30.692408	3.026670	57.825000
30.717420	3.031354	57.871000
30.742631	3.034039	57.918000
30.768461	3.036341	57.964000
30.793417	3.042512	58.011000
30.818075	3.047216	58.056000
30.842679	3.048811	58.103000
30.867115	3.052552	58.149000
30.892685	3.055379	58.194000
30.917612	3.058523	58.241000
30.942695	3.060706	58.287000
30.967353	3.061030	58.333000
30.992854	3.062602	58.379000
31.018085	3.061732	58.425000
31.042810	3.061546	58.472000
31.243395	3.059902	58.518000
31.267636	3.052173	58.888000
31.292006	3.050716	58.934000
31.317371	3.048284	58.980000
31.342557	3.044179	59.026000
31.367548	3.038673	59.072000
31.393205	3.036230	59.118000
31.418358	3.035527	59.164000
31.443570	3.034761	59.211000
31.468178	3.032732	59.257000
31.492811	3.032040	59.303000
31.517131	3.026984	59.349000
31.542798	3.026650	59.396000
31.567861	3.022540	59.441000
31.593607	3.021344	59.488000
31.618664	3.017181	59.535000
31.643780	3.015844	59.581000
31.728313	3.015495	59.628000
31.752368	3.013082	59.783000
31.951442	3.001241	59.828000
31.976037	3.001367	60.196000
32.001026	2.999561	60.242000
32.025836	2.996521	60.287000
32.050505	2.996133	60.333000
32.075684	2.997037	60.378000
32.100949	2.995037	60.424000
32.125542	2.993033	60.470000
32.149812	2.991349	60.516000
32.174747	2.991786	60.562000
32.200039	2.992272	60.608000
32.225152	2.990722	60.655000
32.319574	2.989758	60.701000
32.344864	2.995608	60.875000
32.429763	2.990454	60.922000
32.454837	2.990194	61.079000
32.479709	2.991721	61.126000
32.504688	2.994595	61.172000
32.530343	3.000646	61.219000
32.555095	3.004174	61.265000
32.580078	3.009832	61.311000
32.605629	3.016589	61.357000
32.630888	3.020881	61.404000
32.655844	3.029945	61.449000
32.680662	3.033726	61.496000
32.705287	3.038440	61.541000
32.730531	3.045931	61.589000
32.755518	3.052062	61.634000
32.780992	3.055701	61.681000
32.805733	3.064492	61.727000
32.831634	3.075720	61.773000
32.915380	3.078657	61.820000
32.939756	3.098168	61.975000
33.024662	3.112129	62.022000
33.050225	3.115071	62.179000
33.075476	3.119509	62.225000
33.100405	3.123184	62.272000
33.126118	3.128259	62.318000
33.151277	3.131701	62.364000
33.176560	3.135397	62.411000
33.201327	3.135407	62.457000
33.226245	3.139713	62.504000
33.251132	3.140961	62.551000
33.276034	3.146270	62.596000
33.301201	3.151369	62.643000
33.326399	3.155783	62.688000
33.351612	3.158467	62.734000
33.376987	3.158497	62.781000
33.402016	3.160554	62.828000
33.427709	3.159573	62.873000
33.510145	3.163046	62.920000
33.535608	3.162121	63.075000
33.620760	3.162859	63.121000
33.646169	3.162121	63.278000
33.671271	3.158244	63.325000
33.696515	3.159255	63.371000
33.721371	3.159816	63.417000
33.746031	3.161600	63.462000
33.771640	3.160433	63.510000
33.795942	3.164769	63.556000
33.821678	3.164648	63.602000
33.846603	3.166321	63.650000
33.872016	3.163764	63.696000
33.897499	3.168510	63.743000
33.922489	3.170013	63.789000
33.947714	3.170340	63.835000
33.972812	3.173333	63.880000
33.996961	3.175820	63.927000
34.022201	3.178186	63.973000
34.220964	3.179762	64.019000
34.246685	3.190185	64.387000
34.271084	3.184115	64.433000
34.296201	3.183306	64.480000
34.321575	3.182786	64.526000
34.346839	3.181901	64.572000
34.371948	3.183539	64.618000
34.396735	3.181557	64.665000
34.421652	3.177963	64.711000
34.445944	3.174278	64.757000
34.471264	3.171079	64.803000
34.496224	3.167505	64.849000
34.521898	3.167131	64.895000
34.546681	3.166413	64.941000
34.572083	3.163521	64.987000
34.596831	3.163905	65.034000
34.621173	3.167242	65.080000
34.704926	3.167354	65.126000
34.730078	3.175649	65.280000
34.929114	3.195457	65.327000
34.954542	3.194108	65.694000
34.979587	3.196414	65.740000
35.004723	3.195225	65.787000
35.029275	3.197480	65.832000
35.054035	3.197439	65.879000
35.078699	3.200897	65.925000
35.104343	3.203732	65.971000
35.129433	3.206290	66.018000
35.154612	3.212159	66.064000
35.179764	3.218746	66.110000
35.204397	3.223062	66.156000
35.298631	3.224781	66.203000
35.322526	3.242973	66.374000
35.407851	3.253340	66.422000
35.433571	3.255524	66.579000
35.458446	3.257439	66.626000
35.483594	3.258324	66.672000
35.508393	3.255033	66.718000
35.534305	3.259785	66.764000
35.559123	3.264495	66.810000
35.583537	3.265906	66.856000
35.608208	3.267529	66.903000
35.633111	3.269884	66.949000
35.658566	3.271630	66.995000
35.683998	3.270046	67.041000
35.709192	3.271650	67.088000
35.734048	3.271508	67.134000
35.759822	3.272054	67.180000
35.784851	3.270494	67.226000
35.809546	3.268990	67.272000
35.893307	3.266371	67.319000
35.918297	3.258820	67.474000
36.003845	3.253042	67.521000
36.029435	3.248588	67.679000
36.054602	3.246304	67.724000
36.079781	3.241193	67.771000
36.105055	3.239904	67.818000
36.129746	3.232828	67.864000
36.154479	3.228374	67.911000
36.179892	3.223295	67.957000
36.204821	3.220635	68.004000
36.230057	3.219590	68.051000
36.255478	3.217294	68.096000
36.280626	3.214697	68.143000
36.305832	3.211072	68.188000
36.330476	3.208747	68.235000
36.355425	3.201023	68.281000
36.379520	3.194897	68.326000
36.404879	3.189821	68.373000
36.489697	3.184979	68.419000
36.514868	3.167833	68.575000
36.600292	3.155478	68.622000
36.625544	3.151429	68.779000
36.649770	3.149013	68.825000
36.674545	3.144413	68.871000
36.699025	3.143205	68.917000
36.724188	3.142128	68.963000
36.750047	3.138453	69.010000
36.775068	3.135713	69.056000
36.799836	3.133146	69.102000
36.825468	3.132484	69.149000
36.850347	3.130148	69.195000
36.875034	3.127050	69.240000
36.899310	3.127156	69.287000
36.924377	3.124644	69.333000
36.949821	3.130840	69.378000
36.974519	3.134424	69.425000
36.999951	3.136391	69.471000
37.199721	3.135825	69.518000
37.225053	3.169809	69.887000
37.250309	3.175698	69.933000
37.275372	3.180237	69.979000
37.300490	3.184644	70.026000
37.325369	3.189143	70.072000
37.349671	3.196372	70.119000
37.374739	3.202221	70.165000
37.400321	3.212421	70.211000
37.425054	3.217122	70.257000
37.450563	3.223693	70.302000
37.475626	3.231357	70.350000
37.500943	3.238191	70.396000
37.526983	3.246981	70.442000
37.550924	3.254028	70.489000
37.575799	3.263723	70.534000
37.600502	3.267640	70.580000
37.684966	3.277080	70.627000
37.710198	3.298321	70.781000
37.909177	3.342077	70.826000
37.935285	3.346952	71.195000
37.960053	3.354210	71.241000
37.984740	3.360853	71.288000
38.009761	3.368873	71.335000
38.034340	3.377352	71.381000
38.059619	3.389726	71.427000
38.084709	3.399969	71.473000
38.110172	3.406122	71.520000
38.134917	3.418234	71.565000
38.160603	3.425770	71.612000
38.186269	3.435623	71.659000
38.277138	3.444531	71.704000
38.302816	3.473417	71.874000
38.387426	3.492378	71.921000
38.413046	3.497190	72.079000
38.438682	3.499798	72.125000
38.463642	3.506461	72.172000
38.487768	3.509504	72.218000
38.512870	3.513962	72.264000
38.538325	3.519951	72.310000
38.562532	3.521140	72.356000
38.588133	3.523597	72.402000
38.613539	3.525598	72.449000
38.638552	3.530522	72.495000
38.663512	3.533923	72.541000
38.689301	3.537730	72.588000
38.713523	3.541152	72.634000
38.737434	3.543710	72.680000
38.762851	3.549467	72.726000
38.787995	3.554097	72.772000
38.873735	3.557130	72.818000
38.898706	3.579144	72.974000
38.983804	3.597154	73.022000
39.009290	3.601537	73.179000
39.034096	3.603230	73.225000
39.058430	3.605718	73.271000
39.083317	3.607006	73.318000
39.108188	3.607477	73.364000
39.133324	3.606895	73.410000
39.159133	3.606714	73.456000
39.183789	3.606308	73.502000
39.208753	3.608877	73.549000
39.234550	3.610378	73.595000
39.259456	3.612643	73.641000
39.284089	3.612926	73.688000
39.308430	3.612157	73.734000
39.334289	3.614674	73.780000
39.359591	3.615099	73.827000
39.383966	3.612501	73.872000
39.469556	3.610236	73.919000
39.493959	3.617273	74.075000
39.579702	3.625699	74.122000
39.603529	3.625405	74.278000
39.628619	3.626978	74.324000
39.654351	3.628807	74.371000
39.679103	3.627822	74.418000
39.704063	3.633251	74.463000
39.729975	3.633651	74.510000
39.755085	3.634939	74.556000
39.779411	3.634287	74.602000
39.804255	3.637699	74.648000
39.829307	3.639029	74.694000
39.854079	3.639312	74.741000
39.879369	3.640726	74.788000
39.904816	3.640267	74.833000
39.930410	3.643193	74.880000
39.954632	3.642663	74.925000
39.980398	3.645590	74.972000
40.180314	3.644462	75.017000
40.204648	3.644907	75.387000
40.229865	3.643487	75.432000
40.253127	3.641708	75.479000
40.278167	3.642946	75.524000
40.303707	3.639110	75.570000
40.328655	3.640085	75.616000
40.353745	3.637972	75.663000
40.378582	3.637740	75.708000
40.404156	3.636966	75.755000
40.428048	3.635677	75.800000
40.452263	3.635151	75.846000
40.477875	3.635566	75.891000
40.502236	3.633453	75.938000
40.527741	3.631426	75.984000
40.553323	3.629980	76.030000
40.578686	3.628918	76.077000
40.660745	3.628428	76.122000
40.686016	3.628938	76.277000
40.885010	3.630117	76.322000
40.910331	3.630663	76.691000
40.935975	3.632573	76.738000
40.960750	3.630845	76.784000
40.986566	3.633331	76.830000
41.011626	3.634499	76.876000
41.036974	3.637092	76.922000
41.061480	3.636713	76.969000
41.086574	3.642208	77.016000
41.110539	3.646777	77.061000
41.135910	3.645963	77.107000
41.161488	3.652237	77.154000
41.256252	3.658484	77.199000
41.281434	3.684688	77.376000
41.366901	3.721836	77.422000
41.391450	3.728483	77.579000
41.416636	3.734031	77.625000
41.441707	3.741838	77.672000
41.465780	3.746426	77.718000
41.490831	3.753871	77.764000
41.516682	3.758575	77.810000
41.541585	3.760947	77.856000
41.566867	3.768246	77.902000
41.592261	3.769726	77.947000
41.617343	3.773727	77.995000
41.641631	3.775989	78.041000
41.666913	3.778018	78.088000
41.692257	3.783575	78.134000
41.716902	3.788694	78.181000
41.742192	3.790984	78.226000
41.767486	3.797879	78.272000
41.852234	3.803190	78.319000
41.877943	3.819991	78.476000
41.961351	3.832302	78.521000
41.987225	3.835971	78.679000
42.012158	3.838869	78.725000
42.037190	3.845268	78.772000
42.062465	3.844557	78.818000
42.088282	3.842498	78.865000
42.113510	3.846363	78.911000
42.137932	3.846414	78.957000
42.163948	3.846757	79.003000
42.187840	3.850761	79.050000
42.212715	3.850901	79.096000
42.238320	3.858689	79.143000
42.263165	3.859754	79.189000
42.287975	3.856973	79.235000
42.313411	3.858497	79.282000
42.339004	3.858892	79.328000
42.363726	3.860738	79.372000
42.448021	3.861924	79.419000
42.471790	3.871034	79.575000
42.557702	3.909894	79.621000
42.583027	3.923012	79.779000
42.608044	3.936090	79.825000
42.632896	3.945098	79.872000
42.658674	3.952468	79.917000
42.683749	3.955218	79.963000
42.707845	3.960121	80.010000
42.732801	3.961982	80.056000
42.756608	3.966162	80.102000
42.781963	3.968629	80.148000
42.808079	3.973400	80.194000
42.833124	3.977555	80.241000
42.857830	3.978510	80.286000
42.882970	3.980896	80.332000
42.908402	3.980315	80.379000
42.932878	3.983059	80.425000
42.956620	3.983464	80.471000
43.158852	3.987614	80.517000
43.182702	4.002885	80.887000
43.207412	4.003527	80.933000
43.233005	4.007222	80.980000
43.258464	4.014673	81.026000
43.283186	4.019647	81.072000
43.308411	4.028270	81.117000
43.333866	4.034984	81.164000
43.358288	4.035736	81.211000
43.383320	4.037850	81.257000
43.407619	4.040590	81.303000
43.432521	4.042621	81.349000
43.457681	4.045574	81.395000
43.483086	4.047737	81.440000
43.508565	4.048601	81.487000
43.533205	4.050760	81.532000
43.558365	4.052184	81.579000
43.640597	4.055981	81.624000
43.666394	4.063331	81.780000
43.865346	4.084135	81.825000
43.889960	4.087623	82.193000
43.916187	4.094195	82.239000
43.940936	4.103171	82.286000
43.965711	4.109465	82.331000
43.990632	4.117406	82.377000
44.015169	4.124482	82.423000
44.039814	4.130175	82.470000
44.064947	4.135276	82.516000
44.090675	4.143420	82.563000
44.115342	4.147019	82.609000
44.140064	4.158162	82.654000
44.235051	4.169613	82.701000
44.260306	4.217068	82.875000
44.344751	4.216867	82.922000
44.370383	4.216857	83.078000
44.394786	4.215014	83.125000
44.420287	4.214465	83.172000
44.445650	4.210073	83.218000
44.470430	4.210370	83.264000
44.495823	4.212996	83.311000
44.520906	4.210916	83.356000
44.545355	4.210764	83.403000
44.569884	4.211046	83.449000
44.594890	4.213408	83.495000
44.620553	4.215014	83.542000
44.645190	4.215722	83.588000
44.671179	4.213692	83.634000
44.695901	4.210745	83.681000
44.720730	4.212333	83.727000
44.745889	4.211425	83.772000
44.830157	4.214262	83.819000
44.854698	4.213712	83.974000
44.939954	4.208725	84.022000
44.965494	4.206934	84.179000
44.990926	4.204794	84.225000
45.016604	4.198995	84.271000
45.041652	4.195985	84.317000
45.067115	4.190842	84.364000
45.092605	4.186901	84.410000
45.116205	4.184427	84.457000
45.141034	4.181011	84.502000
45.166770	4.176317	84.549000
45.192567	4.171894	84.595000
45.216827	4.166444	84.642000
45.242821	4.161159	84.687000
45.267949	4.158546	84.733000
45.292717	4.155739	84.781000
45.317719	4.150152	84.826000
45.343209	4.146482	84.873000
45.426432	4.145741	84.920000
45.451972	4.135175	85.075000
45.537201	4.126125	85.121000
45.562856	4.128107	85.278000
45.587915	4.134559	85.325000
45.612668	4.137799	85.371000
45.637520	4.140171	85.418000
45.662184	4.142100	85.464000
45.686540	4.140924	85.510000
45.711688	4.138461	85.556000
45.738042	4.129159	85.603000
45.762042	4.118422	85.648000
45.787677	4.107717	85.695000
45.813052	4.096337	85.740000
45.838092	4.087178	85.787000
45.862157	4.076366	85.833000
45.887382	4.065483	85.880000
45.912653	4.053443	85.926000
45.937678	4.043672	85.972000
46.137544	4.031339	86.019000
46.150782	3.963169	86.388000
46.187640	3.960100	86.434000
46.212865	3.959524	86.480000
46.238523	3.954510	86.526000
46.263383	3.950112	86.572000
46.287767	3.945825	86.619000
46.313134	3.938516	86.665000
46.337187	3.931206	86.711000
46.362262	3.924342	86.756000
46.387828	3.916035	86.803000
46.412792	3.903649	86.849000
46.437898	3.892792	86.895000
46.462984	3.881870	86.942000
46.488946	3.875919	86.987000
46.512719	3.871215	87.034000
46.537529	3.866971	87.081000
46.621751	3.860818	87.127000
46.646492	3.836546	87.282000
46.846665	3.785043	87.328000
46.871713	3.778632	87.696000
46.896427	3.771232	87.742000
46.922113	3.764369	87.788000
46.946508	3.761168	87.835000
46.970738	3.754995	87.881000
46.996277	3.750927	87.927000
47.021675	3.745426	87.973000
47.046354	3.741005	88.020000
47.072013	3.732489	88.067000
47.097349	3.731131	88.113000
47.122797	3.728360	88.158000
47.214315	3.723606	88.206000
47.239163	3.751558	88.374000
47.324104	3.770557	88.422000
47.349640	3.771550	88.579000
47.375325	3.771292	88.625000
47.399732	3.766857	88.671000
47.425514	3.768778	88.718000
47.450723	3.766927	88.765000
47.475414	3.767564	88.811000
47.500439	3.767683	88.857000
47.525748	3.769623	88.904000
47.550155	3.771935	88.950000
47.575330	3.772137	88.996000
47.601073	3.773675	89.042000
47.626428	3.775149	89.089000
47.650881	3.777532	89.135000
47.676282	3.776629	89.182000
47.701692	3.779595	89.228000
47.725968	3.781988	89.273000
47.809852	3.779696	89.320000
47.834746	3.767342	89.475000
47.920413	3.762820	89.521000
47.946075	3.760876	89.679000
47.970966	3.758635	89.725000
47.996598	3.755289	89.772000
48.021331	3.752427	89.819000
48.045050	3.749297	89.865000
48.071028	3.746986	89.911000
48.095999	3.744937	89.957000
48.121243	3.742414	90.004000
48.146410	3.740722	90.051000
48.172050	3.738430	90.097000
48.197390	3.737335	90.143000
48.221831	3.733074	90.189000
48.247574	3.732152	90.236000
48.271639	3.731829	90.282000
48.295823	3.729123	90.328000
48.321385	3.727014	90.373000
48.405558	3.725130	90.420000
48.526395	3.748041	90.574000
48.551555	3.745638	90.797000
48.576080	3.739136	90.843000
48.600760	3.732156	90.889000
48.624905	3.726039	90.935000
48.649968	3.725677	90.980000
48.675673	3.719797	91.026000
48.700625	3.715758	91.072000
48.725458	3.712812	91.119000
48.750791	3.714779	91.165000
48.776019	3.716815	91.212000
48.800011	3.715870	91.257000
48.824852	3.717162	91.303000
48.850153	3.716894	91.349000
48.875101	3.714952	91.396000
48.899773	3.711605	91.442000
48.925478	3.708725	91.488000
49.123892	3.706187	91.533000
49.149028	3.582032	91.901000
49.173842	3.606154	91.946000
49.198744	3.620130	91.993000
49.223039	3.626060	92.039000
49.248437	3.627910	92.085000
49.273339	3.625145	92.132000
49.298694	3.620631	92.178000
49.323608	3.616935	92.223000
49.348840	3.614150	92.270000
49.372463	3.606912	92.316000
49.397803	3.605299	92.361000
49.422559	3.602964	92.407000
49.447477	3.599147	92.454000
49.472333	3.597131	92.500000
49.498049	3.600508	92.545000
49.523493	3.603439	92.591000
49.606789	3.608433	92.638000
49.631680	3.621066	92.793000
49.830174	3.575888	92.839000
49.856094	3.572804	93.206000
49.880820	3.568316	93.254000
49.906202	3.563312	93.300000
49.931734	3.555907	93.347000
49.957539	3.551392	93.393000
49.981949	3.547379	93.439000
50.007093	3.546029	93.485000
50.032380	3.548243	93.531000
50.056567	3.552894	93.578000
50.080935	3.556068	93.623000
50.106702	3.559940	93.669000
50.192384	3.563918	93.717000
50.218035	3.550862	93.875000
50.303091	3.533265	93.922000
50.328554	3.528200	94.079000
50.353817	3.523641	94.125000
50.378777	3.516322	94.172000
50.402465	3.513592	94.218000
50.427847	3.507420	94.263000
50.453014	3.505419	94.310000
50.478074	3.502007	94.355000
50.502914	3.500293	94.402000
50.528120	3.497144	94.447000
50.552707	3.489022	94.493000
50.577540	3.484989	94.539000
50.602146	3.477020	94.585000
50.626318	3.471881	94.631000
50.652012	3.473097	94.678000
50.677759	3.473512	94.723000
50.702857	3.472326	94.770000
50.789139	3.476066	94.816000
50.814433	3.475328	94.975000
50.899619	3.463426	95.021000
50.924156	3.455882	95.178000
50.947952	3.451909	95.224000
50.973138	3.448573	95.271000
50.998482	3.445187	95.316000
51.024364	3.441880	95.364000
51.048763	3.439477	95.410000
51.075052	3.435789	95.456000
51.099831	3.433346	95.503000
51.124068	3.429312	95.548000
51.148836	3.425734	95.595000
51.173776	3.422479	95.640000
51.198901	3.416680	95.687000
51.223285	3.416477	95.733000
51.249474	3.416285	95.779000
51.274099	3.416053	95.825000
51.298882	3.412308	95.871000
51.384868	3.409543	95.917000
51.408794	3.398433	96.074000
51.494526	3.400583	96.121000
51.519040	3.401393	96.279000
51.544799	3.407595	96.325000
51.569662	3.411042	96.372000
51.594730	3.416529	96.418000
51.607542	3.427925	96.464000
51.645698	3.433245	96.510000
51.670546	3.440544	96.556000
51.694300	3.443992	96.603000
51.719947	3.449078	96.649000
51.744749	3.451697	96.695000
51.769809	3.456958	96.741000
51.794938	3.463630	96.788000
51.820224	3.468081	96.833000
51.845691	3.474507	96.880000
51.870766	3.477701	96.926000
51.896440	3.483520	96.972000
52.095503	3.485071	97.019000
52.119771	3.501102	97.388000
52.144992	3.506637	97.434000
52.169825	3.513470	97.480000
52.194919	3.519042	97.527000
52.220248	3.521624	97.573000
52.245615	3.524940	97.619000
52.270490	3.530567	97.665000
52.295895	3.533574	97.712000
52.321008	3.538285	97.757000
52.345972	3.544568	97.804000
52.369917	3.551023	97.849000
52.395492	3.561906	97.897000
52.420747	3.564448	97.943000
52.445646	3.568366	97.989000
52.471089	3.571076	98.036000
52.496864	3.575949	98.082000
52.580698	3.578102	98.128000
52.606341	3.587149	98.283000
52.804190	3.589980	98.328000
52.829772	3.590344	98.697000
52.854993	3.585370	98.743000
52.879795	3.582934	98.790000
52.905270	3.581240	98.836000
52.930399	3.578273	98.883000
52.956027	3.576110	98.929000
52.980368	3.574336	98.975000
53.006304	3.577616	99.021000
53.030430	3.580012	99.067000
53.055070	3.578546	99.114000
53.080057	3.578753	99.160000
53.172431	3.577035	99.206000
53.197111	3.588231	99.375000
53.283035	3.584946	99.421000
53.306903	3.580347	99.579000
53.331975	3.581099	99.624000
53.357326	3.575969	99.672000
53.381798	3.574538	99.717000
53.406784	3.569888	99.763000
53.432705	3.562932	99.809000
53.457883	3.557054	99.855000
53.482436	3.553707	99.902000
53.508233	3.548506	99.948000
53.532125	3.543613	99.994000
53.556535	3.540525	100.040000
53.582182	3.541278	100.086000
53.608033	3.534641	100.134000
53.632213	3.535410	100.179000
53.657135	3.537765	100.225000
53.682916	3.536941	100.271000
53.767688	3.535258	100.318000
53.792544	3.523268	100.474000
53.877400	3.513506	100.521000
53.903070	3.509892	100.679000
53.928533	3.505070	100.726000
53.953543	3.506794	100.772000
53.978453	3.503619	100.818000
54.004166	3.501526	100.864000
54.028810	3.496366	100.910000
54.053755	3.490652	100.957000
54.078334	3.488269	101.002000
54.102852	3.484363	101.049000
54.127739	3.482173	101.094000
54.153048	3.481366	101.141000
54.178699	3.483097	101.187000
54.203263	3.483108	101.233000
54.228319	3.482966	101.279000
54.253617	3.481304	101.325000
54.278154	3.478292	101.371000
54.363210	3.473275	101.418000
54.387724	3.462337	101.574000
54.474228	3.450036	101.620000
54.499483	3.446938	101.780000
54.524562	3.447921	101.825000
54.549676	3.446786	101.871000
54.575173	3.448286	101.918000
54.600071	3.448356	101.965000
54.624259	3.445519	102.011000
54.649295	3.443642	102.056000
54.673963	3.442102	102.103000
54.699280	3.442041	102.149000
54.724993	3.440885	102.196000
54.749860	3.439780	102.242000
54.775331	3.439720	102.288000
54.800736	3.439544	102.335000
54.826249	3.438533	102.382000
54.850391	3.436738	102.428000
54.874897	3.440266	102.473000
55.074344	3.440588	102.521000
55.098612	3.450910	102.887000
55.124310	3.451874	102.934000
55.149515	3.452550	102.980000
55.175128	3.455574	103.026000
55.199838	3.458566	103.072000
55.225474	3.462549	103.119000
55.250096	3.464432	103.165000
55.274529	3.467071	103.211000
55.299516	3.465648	103.257000
55.323999	3.465185	103.304000
55.349174	3.461504	103.350000
55.373995	3.463134	103.396000
55.400369	3.461434	103.441000
55.425382	3.460238	103.489000
55.450303	3.463907	103.535000
55.476220	3.468933	103.581000
55.558183	3.474158	103.628000
55.584157	3.491973	103.783000
55.782617	3.486170	103.829000
55.808252	3.484183	104.197000
55.834184	3.487013	104.244000
55.859171	3.488153	104.290000
55.884399	3.490884	104.337000
55.909367	3.495208	104.383000
55.935091	3.499383	104.429000
55.959186	3.500459	104.475000
55.983412	3.502744	104.522000
56.008768	3.504256	104.568000
56.033389	3.504741	104.614000
56.058760	3.504387	104.660000
56.151288	3.503780	104.706000
56.175721	3.500419	104.874000
56.260693	3.500551	104.921000
56.286213	3.500925	105.079000
56.311027	3.504256	105.125000
56.336571	3.502603	105.171000
56.361588	3.497821	105.218000
56.385860	3.496694	105.264000
56.411477	3.494287	105.309000
56.435795	3.488108	105.355000
56.459856	3.487134	105.401000
56.485315	3.482153	105.447000
56.510590	3.477046	105.493000
56.535787	3.471553	105.539000
56.560294	3.468642	105.586000
56.586291	3.463664	105.632000
56.611124	3.462215	105.678000
56.634716	3.461414	105.723000
56.659837	3.464851	105.770000
56.745457	3.464760	105.816000
56.770909	3.468156	105.974000
56.856011	3.474107	106.021000
56.881835	3.479549	106.179000
56.907356	3.482111	106.225000
56.932200	3.487255	106.271000
56.956994	3.490834	106.317000
56.981443	3.498479	106.363000
57.006307	3.506106	106.409000
57.030698	3.511615	106.455000
57.055431	3.521912	106.500000
57.080652	3.527821	106.546000
57.105800	3.535100	106.592000
57.129964	3.545721	106.637000
57.154636	3.556249	106.683000
57.179212	3.563336	106.729000
57.204360	3.576014	106.776000
57.230483	3.585012	106.822000
57.255558	3.594085	106.869000
57.341982	3.604165	106.915000
57.367571	3.645851	107.074000
57.452643	3.685936	107.121000
57.478766	3.695611	107.280000
57.503388	3.706192	107.325000
57.527345	3.712407	107.371000
57.552435	3.721542	107.418000
57.578071	3.733576	107.465000
57.602870	3.745204	107.511000
57.627795	3.755531	107.557000
57.653519	3.768215	107.603000
57.678652	3.777214	107.649000
57.703915	3.794654	107.696000
57.729316	3.808973	107.743000
57.754026	3.825599	107.789000
57.777841	3.840164	107.835000
57.803454	3.853151	107.881000
57.828690	3.865967	107.928000
57.853304	3.874078	107.973000
58.053155	3.884500	108.020000
58.077980	3.944314	108.388000
58.102967	3.954540	108.434000
58.127857	3.968011	108.480000
58.153428	3.980430	108.526000
58.178268	3.993412	108.572000
58.202221	4.001524	108.619000
58.228364	4.007504	108.665000
58.252894	4.014338	108.712000
58.278461	4.019843	108.758000
58.303854	4.028168	108.805000
58.328945	4.035635	108.851000
58.353643	4.042914	108.896000
58.378937	4.048130	108.943000
58.404604	4.054793	108.989000
58.428399	4.061292	109.036000
58.453117	4.067147	109.081000
58.537097	4.075850	109.128000
58.562214	4.095832	109.283000
58.762464	4.160037	109.329000
58.787455	4.168644	109.697000
58.812046	4.176155	109.743000
58.837121	4.183281	109.789000
58.861331	4.189585	109.835000
58.886518	4.198802	109.881000
58.911908	4.208492	109.928000
58.937394	4.217891	109.974000
58.962038	4.227642	110.021000
58.987267	4.238110	110.067000
59.012895	4.249527	110.113000
59.038427	4.259005	110.159000
59.128812	4.268879	110.206000
59.154643	4.307879	110.374000
59.239073	4.340474	110.421000
59.265178	4.353304	110.579000
59.290326	4.367014	110.625000
59.314978	4.384332	110.672000
59.340817	4.400285	110.718000
59.364982	4.415318	110.764000
59.389507	4.430700	110.811000
59.414836	4.443888	110.857000
59.439838	4.455423	110.903000
59.464705	4.467226	110.949000
59.490115	4.479286	110.996000
59.516108	4.489635	111.041000
59.541010	4.499871	111.088000
59.565950	4.510415	111.135000
59.590057	4.520065	111.180000
59.615447	4.531655	111.227000
59.639550	4.542164	111.272000
59.724767	4.551617	111.318000
59.750196	4.588747	111.474000
59.836074	4.622893	111.521000
59.861279	4.631579	111.679000
59.885425	4.643571	111.725000
59.910795	4.652707	111.772000
59.934353	4.667389	111.817000
59.959597	4.685499	111.864000
59.986128	4.703371	111.910000
60.010726	4.714673	111.956000
60.035559	4.727771	112.002000
60.060335	4.738556	112.048000
60.085444	4.748778	112.094000
60.109989	4.756838	112.140000
60.133742	4.764116	112.186000
60.160004	4.772712	112.233000
60.184323	4.782831	112.279000
60.210235	4.795305	112.325000
60.235525	4.808320	112.372000
60.320408	4.821185	112.418000
60.345495	4.850478	112.574000
60.430896	4.876211	112.621000
60.455975	4.885300	112.779000
60.480274	4.899161	112.825000
60.505076	4.909539	112.871000
60.530359	4.921853	112.917000
60.556217	4.932700	112.964000
60.581680	4.941449	113.010000
60.606325	4.953865	113.056000
60.631669	4.961826	113.103000
60.643398	4.976560	113.149000
60.680670	4.980386	113.195000
60.705207	4.991836	113.241000
60.730420	4.997974	113.286000
60.756087	5.007606	113.333000
60.781024	5.015323	113.379000
60.806825	5.025244	113.426000
60.831857	5.035528	113.473000
61.031143	5.048736	113.518000
61.056583	5.183756	113.888000
61.081308	5.200260	113.934000
61.105484	5.221129	113.980000
61.130867	5.240474	114.026000
61.156084	5.261253	114.073000
61.180855	5.286290	114.119000
61.205819	5.308526	114.164000
61.232089	5.332021	114.211000
61.257244	5.355648	114.257000
61.282404	5.379203	114.304000
61.307840	5.401975	114.350000
61.332089	5.423337	114.397000
61.356011	5.443234	114.443000
61.381324	5.462040	114.489000
61.406764	5.478393	114.535000
61.431851	5.498028	114.581000
61.516546	5.518313	114.628000
61.541221	5.608260	114.783000
61.740699	5.798419	114.829000
61.765985	5.825770	115.197000
61.790103	5.853851	115.243000
61.815006	5.882916	115.290000
61.840445	5.914238	115.336000
61.865359	5.941629	115.382000
61.890288	5.966836	115.427000
61.916039	5.995141	115.473000
61.940968	6.022882	115.520000
61.964967	6.050344	115.566000
61.990642	6.074857	115.612000
62.014891	6.103034	115.658000
62.107592	6.129788	115.705000
62.132855	6.222368	115.875000
62.218103	6.311477	115.921000
62.243692	6.337255	116.079000
62.268767	6.363441	116.125000
62.292890	6.388247	116.171000
62.317150	6.410769	116.217000
62.342928	6.430240	116.263000
62.368057	6.452907	116.309000
62.392705	6.470896	116.356000
62.418725	6.489485	116.401000
62.443347	6.510190	116.448000
62.467427	6.529904	116.494000
62.492859	6.550982	116.540000
62.517765	6.569724	116.586000
62.542337	6.589317	116.633000
62.567700	6.606418	116.679000
62.593443	6.625369	116.725000
62.619079	6.642403	116.771000
62.704031	6.656790	116.818000
62.729198	6.718150	116.975000
62.741392	6.793786	117.022000
62.826202	6.805496	117.156000
62.851757	6.822686	117.203000
62.877259	6.842732	117.248000
62.902437	6.859015	117.295000
62.926525	6.878558	117.341000
62.951469	6.898431	117.387000
62.976256	6.918565	117.434000
63.001558	6.937571	117.479000
63.026929	6.960868	117.526000
63.052365	6.978413	117.572000
63.076756	6.990333	117.618000
63.101769	7.000230	117.664000
63.127586	7.009379	117.711000
63.151796	7.023457	117.757000
63.176172	7.038900	117.803000
63.201839	7.056338	117.850000
63.298662	7.072778	117.896000
63.323376	7.165910	118.075000
63.409499	7.274455	118.121000
63.433802	7.307283	118.279000
63.459215	7.342737	118.324000
63.484790	7.376896	118.371000
63.510072	7.412093	118.418000
63.534893	7.442634	118.464000
63.561013	7.473215	118.511000
63.584759	7.505192	118.556000
63.609181	7.537901	118.603000
63.635024	7.572881	118.649000
63.659569	7.611975	118.695000
63.685101	7.653747	118.742000
63.710238	7.696542	118.788000
63.735700	7.737538	118.834000
63.760541	7.780591	118.880000
63.785120	7.821594	118.926000
63.810257	7.864094	118.972000
64.010134	7.901183	119.019000
64.034195	8.194339	119.388000
64.059877	8.249966	119.434000
64.084249	8.315037	119.480000
64.109650	8.373157	119.525000
64.134964	8.422416	119.571000
64.160354	8.467790	119.618000
64.184998	8.513270	119.664000
64.210288	8.559755	119.711000
64.235728	8.603344	119.756000
64.259751	8.642415	119.802000
64.284165	8.674137	119.850000
64.310116	8.708443	119.896000
64.335333	8.741153	119.941000
64.359981	8.778494	119.988000
64.385556	8.821420	120.034000
64.410727	8.869470	120.081000
64.493915	8.921564	120.127000
64.518710	9.109272	120.282000
64.717711	9.499922	120.328000
64.743543	9.537412	120.696000
64.768199	9.580895	120.742000
64.793309	9.626408	120.788000
64.817804	9.678935	120.834000
64.843582	9.737059	120.880000
64.868023	9.804095	120.926000
64.892088	9.874080	120.971000
64.917758	9.941867	121.018000
64.942091	10.005511	121.064000
64.968208	10.066609	121.110000
64.993325	10.128282	121.156000
65.087078	10.190963	121.203000
65.111227	10.419070	121.374000
65.196936	10.649601	121.421000
65.220916	10.719678	121.579000
65.246602	10.788214	121.625000
65.271704	10.854379	121.672000
65.296537	10.906624	121.718000
65.322284	10.939045	121.764000
65.347916	10.962925	121.810000
65.372642	10.988138	121.857000
65.396775	11.022435	121.903000
65.421739	11.060942	121.948000
65.446610	11.099608	121.994000
65.470759	11.138501	122.040000
65.496983	11.178549	122.087000
65.521993	11.222768	122.132000
65.547317	11.272518	122.179000
65.572066	11.326731	122.225000
65.597905	11.380529	122.272000
65.681547	11.438052	122.318000
65.706595	11.597417	122.474000
65.792158	11.771596	122.521000
65.818182	11.831146	122.680000
65.842815	11.892478	122.726000
65.867986	11.956337	122.772000
65.892750	12.021295	122.818000
65.918712	12.090707	122.864000
65.943115	12.163487	122.911000
65.967887	12.240655	122.957000
65.992881	12.322326	123.003000
66.017983	12.403067	123.049000
66.043062	12.485710	123.096000
66.068586	12.567414	123.142000
66.094218	12.648913	123.188000
66.118359	12.732625	123.235000
66.144176	12.818404	123.280000
66.169347	12.908778	123.327000
66.193288	13.002235	123.372000
66.277415	13.094602	123.419000
66.302409	13.389499	123.575000
66.388963	13.645488	123.620000
66.414480	13.718498	123.780000
66.438990	13.791467	123.826000
66.464015	13.865031	123.872000
66.489117	13.946556	123.918000
66.513266	14.031484	123.965000
66.537968	14.113819	124.010000
66.563646	14.174254	124.056000
66.588011	14.206401	124.103000
66.613597	14.230839	124.149000
66.638967	14.264561	124.195000
66.664638	14.313174	124.241000
66.688272	14.376849	124.287000
66.713581	14.448098	124.334000
66.738537	14.530575	124.380000
66.763201	14.619459	124.426000
66.788649	14.719208	124.472000
66.988549	14.830976	124.518000
67.013444	15.659581	124.888000
67.038691	15.705410	124.934000
67.064124	15.747278	124.980000
67.089425	15.801537	125.027000
67.114082	15.866877	125.072000
67.139760	15.945773	125.119000
67.163770	16.035841	125.165000
67.188404	16.134240	125.211000
67.214166	16.235299	125.257000
67.238822	16.341539	125.304000
67.264063	16.437308	125.350000
67.289495	16.521304	125.396000
67.315234	16.598329	125.443000
67.340144	16.676848	125.489000
67.363878	16.755792	125.535000
67.389264	16.830996	125.581000
67.472338	16.905562	125.627000
67.497924	17.136580	125.782000
67.697202	17.922635	125.828000
67.723034	18.027183	126.196000
67.748420	18.133451	126.243000
67.773798	18.243337	126.289000
67.798132	18.350401	126.335000
67.823249	18.460856	126.382000
67.848136	18.569811	126.428000
67.872569	18.687130	126.473000
67.897763	18.791760	126.519000
67.923641	18.893633	126.566000
67.947906	18.994016	126.612000
67.973407	19.095257	126.657000
68.065493	19.195231	126.705000
68.089665	19.589679	126.874000
68.175774	20.047414	126.921000
68.201513	20.181130	127.080000
68.226377	20.310635	127.126000
68.252017	20.431625	127.172000
68.276704	20.550370	127.218000
68.301475	20.683566	127.264000
68.326654	20.830944	127.311000
68.351126	20.986018	127.357000
68.376235	21.142148	127.403000
68.401130	21.294407	127.449000
68.426838	21.442241	127.496000
68.452163	21.578562	127.542000
68.476589	21.695548	127.588000
68.502267	21.793724	127.634000
68.526616	21.887125	127.680000
68.551234	21.978530	127.726000
68.576504	22.073623	127.772000
68.660976	22.165190	127.819000
68.686086	22.489969	127.975000
68.772110	22.771930	128.022000
68.797396	22.822585	128.180000
68.822905	22.861716	128.225000
68.847285	22.894124	128.272000
68.871718	22.931904	128.318000
68.896958	22.986740	128.364000
68.921891	23.063141	128.411000
68.946978	23.156989	128.456000
68.972103	23.261129	128.503000
68.997704	23.376045	128.550000
69.022944	23.483074	128.596000
69.047516	23.589617	128.642000
69.073432	23.702443	128.688000
69.097881	23.825848	128.735000
69.121592	23.957566	128.781000
69.147716	24.099516	128.827000
69.172633	24.250728	128.873000
69.256836	24.413594	128.920000
69.282499	24.948226	129.075000
69.367985	25.363850	129.121000
69.393148	25.493834	129.279000
69.417512	25.631200	129.325000
69.441938	25.773765	129.372000
69.468047	25.916683	129.418000
69.493033	26.057742	129.465000
69.517666	26.180490	129.510000
69.542906	26.314962	129.557000
69.568416	26.461076	129.602000
69.593348	26.613918	129.648000
69.618220	26.759938	129.695000
69.643329	26.888401	129.741000
69.667847	27.004632	129.788000
69.692765	27.107095	129.834000
69.718650	27.205889	129.881000
69.743114	27.316551	129.927000
69.768623	27.428583	129.972000
69.968170	27.533506	130.019000
69.993111	28.490771	130.387000
70.018359	28.631980	130.434000
70.043176	28.774083	130.480000
70.068278	28.920508	130.526000
70.092081	29.068860	130.571000
70.116999	29.215997	130.617000
70.142923	29.361457	130.664000
70.167326	29.506931	130.710000
70.192474	29.654585	130.755000
70.217683	29.812473	130.802000
70.242623	29.976534	130.848000
70.266842	30.143713	130.893000
70.291728	30.311560	130.940000
70.316992	30.481405	130.986000
70.341702	30.650142	131.033000
70.367441	30.804541	131.079000
70.451398	30.962031	131.124000
70.476231	31.672006	131.280000
70.676216	33.276613	131.326000
70.700588	33.502575	131.694000
70.725206	33.730314	131.740000
70.750085	33.950089	131.786000
70.775310	34.168013	131.832000
70.800750	34.381887	131.879000
70.826551	34.591534	131.925000
70.851591	34.796994	131.972000
70.876547	34.992596	132.018000
70.901534	35.188065	132.065000
70.926436	35.381851	132.110000
70.950316	35.576143	132.157000
71.043831	35.764205	132.202000
71.069471	36.540459	132.374000
71.154404	37.329571	132.422000
71.180881	37.492029	132.579000
71.205153	37.613268	132.626000
71.230132	37.741190	132.672000
71.255587	37.913385	132.719000
71.279959	38.157235	132.765000
71.304915	38.416720	132.811000
71.330447	38.655980	132.857000
71.355326	38.873516	132.903000
71.379959	39.073274	132.949000
71.405199	39.276961	132.996000
71.430686	39.455931	133.042000
71.455388	39.649861	133.088000
71.479007	39.844916	133.133000
71.504739	40.015481	133.180000
71.529756	40.141121	133.225000
71.554819	40.284221	133.272000
71.640190	40.460248	133.317000
71.665000	41.333310	133.474000
71.750978	42.158813	133.521000
71.776172	42.315951	133.680000
71.800360	42.467993	133.727000
