Sample	2mm tape 
date	08/01/2025
	
Temperature (K)	77.00
Angle (deg.)	0.000000
field / T	0.150000
	
		
Approx. trace time (s)	120.0	
		
Current / A	V1  -sample/ uV	time/s
-0.016086	1.794058	0.000000
-0.016056	1.790525	0.046000
-0.016160	1.790383	0.092000
-0.016056	1.786606	0.138000
-0.016184	1.781885	0.184000
-0.016111	1.781426	0.231000
-0.016068	1.782992	0.277000
-0.016141	1.784110	0.323000
-0.016056	1.780025	0.369000
-0.016166	1.784332	0.415000
-0.016044	1.783877	0.462000
-0.016007	1.787244	0.508000
-0.015971	1.787223	0.553000
-0.005154	1.790868	0.599000
-0.016695	1.800291	0.646000
-0.017297	1.803926	0.692000
0.044492	1.804759	0.738000
0.070640	1.830713	0.893000
0.268520	1.857853	0.939000
0.293045	1.855800	1.307000
0.318460	1.852317	1.354000
0.343435	1.852135	1.399000
0.369037	1.851801	1.446000
0.393941	1.851048	1.493000
0.419863	1.848682	1.539000
0.444398	1.847879	1.585000
0.470012	1.846196	1.632000
0.495259	1.845108	1.678000
0.519941	1.843198	1.725000
0.544336	1.844663	1.771000
0.637747	1.844001	1.817000
0.662998	1.840893	1.989000
0.747963	1.835989	2.035000
0.772670	1.834478	2.190000
0.797632	1.833351	2.237000
0.821979	1.832375	2.283000
0.846966	1.832101	2.329000
0.872009	1.828932	2.376000
0.897223	1.826415	2.422000
0.922644	1.827961	2.468000
0.948043	1.832010	2.515000
0.972682	1.834832	2.561000
0.997876	1.836610	2.606000
1.022107	1.841949	2.653000
1.047449	1.844082	2.698000
1.072334	1.846853	2.746000
1.097559	1.849982	2.792000
1.122574	1.854784	2.838000
1.148420	1.859020	2.884000
1.233880	1.863586	2.931000
1.259134	1.888488	3.089000
1.343370	1.922402	3.135000
1.368029	1.932381	3.291000
1.392904	1.940893	3.338000
1.418166	1.953684	3.384000
1.443620	1.964001	3.430000
1.468484	1.973889	3.477000
1.493873	1.983993	3.523000
1.518974	1.997282	3.569000
1.543917	2.006129	3.615000
1.568421	2.019279	3.661000
1.592772	2.032888	3.707000
1.617591	2.042711	3.753000
1.642732	2.054068	3.798000
1.667849	2.069362	3.845000
1.693118	2.082526	3.890000
1.718384	2.098880	3.937000
1.743961	2.106037	3.983000
1.829594	2.115083	4.030000
1.854359	2.144137	4.189000
1.938194	2.181329	4.235000
1.963642	2.186729	4.391000
1.988695	2.193504	4.437000
2.013858	2.199837	4.483000
2.039069	2.202751	4.529000
2.064059	2.204430	4.575000
2.089031	2.204332	4.621000
2.113455	2.206279	4.667000
2.138237	2.207294	4.714000
2.163366	2.206492	4.759000
2.188258	2.205407	4.806000
2.213566	2.204311	4.852000
2.239118	2.206421	4.898000
2.264408	2.198219	4.944000
2.289236	2.197885	4.991000
2.313882	2.192978	5.037000
2.338573	2.189440	5.083000
2.540922	2.184766	5.130000
2.565516	2.144142	5.500000
2.589972	2.137601	5.548000
2.614779	2.128748	5.593000
2.639433	2.121786	5.640000
2.664751	2.112711	5.686000
2.690200	2.105675	5.731000
2.715754	2.100097	5.779000
2.740995	2.095050	5.824000
2.765726	2.089386	5.871000
2.791143	2.082992	5.918000
2.815296	2.075510	5.963000
2.839831	2.076237	6.010000
2.865246	2.072881	6.056000
2.890239	2.068919	6.103000
2.915896	2.065582	6.148000
2.940758	2.064164	6.195000
3.024319	2.060181	6.241000
3.048848	2.050823	6.395000
3.248045	2.023691	6.441000
3.272874	2.022120	6.809000
3.298127	2.019309	6.855000
3.323351	2.022414	6.901000
3.348195	2.023114	6.947000
3.373275	2.027269	6.993000
3.398398	2.029934	7.039000
3.422918	2.029278	7.086000
3.447793	2.027521	7.131000
3.471930	2.032776	7.177000
3.497409	2.029652	7.223000
3.522220	2.038146	7.268000
3.616698	2.041281	7.314000
3.642292	2.056631	7.489000
3.725876	2.058438	7.535000
3.750533	2.060750	7.691000
3.775392	2.063314	7.736000
3.800548	2.063632	7.783000
3.825880	2.067897	7.829000
3.851290	2.068150	7.875000
3.875934	2.069522	7.921000
3.900854	2.066379	7.967000
3.925788	2.066711	8.013000
3.949830	2.066752	8.060000
3.975678	2.067767	8.106000
4.000749	2.066622	8.153000
4.025778	2.068029	8.198000
4.050380	2.067978	8.244000
4.075859	2.064158	8.290000
4.101075	2.058549	8.337000
4.126502	2.055541	8.382000
4.212435	2.251604	8.430000
4.237338	2.035749	8.588000
4.321263	2.023998	8.635000
4.345881	2.012758	8.791000
4.371017	2.006134	8.836000
4.396291	1.998013	8.882000
4.420945	1.993338	8.928000
4.445983	1.983478	8.973000
4.470419	1.979105	9.020000
4.495164	1.966058	9.066000
4.520581	1.956125	9.113000
4.545934	1.951393	9.159000
4.571004	1.942896	9.205000
4.595764	1.941030	9.251000
4.621568	1.931638	9.297000
4.646150	1.929333	9.343000
4.670871	1.921715	9.390000
4.696098	1.917827	9.436000
4.720558	1.913126	9.482000
4.807269	1.913045	9.528000
4.832056	1.899816	9.689000
4.917560	1.896181	9.735000
4.942798	1.896505	9.891000
4.968083	1.896687	9.937000
4.992700	1.904689	9.983000
5.017302	1.905462	10.029000
5.041844	1.911402	10.075000
5.066909	1.916852	10.122000
5.092631	1.921047	10.168000
5.117526	1.924061	10.215000
5.142692	1.928792	10.261000
5.167862	1.931729	10.307000
5.193118	1.935231	10.353000
5.217926	1.939241	10.399000
5.242210	1.941242	10.445000
5.266630	1.944483	10.491000
5.292024	1.943791	10.537000
5.317521	1.944887	10.583000
5.518101	1.946601	10.629000
5.543311	1.958940	11.001000
5.568950	1.956382	11.048000
5.593394	1.949528	11.094000
5.619256	1.944155	11.140000
5.644578	1.941121	11.186000
5.669380	1.934205	11.233000
5.694945	1.930622	11.279000
5.718726	1.921973	11.325000
5.743811	1.914915	11.371000
5.768840	1.903592	11.417000
5.793589	1.894548	11.464000
5.819000	1.886293	11.510000
5.844655	1.881424	11.556000
5.870036	1.881207	11.603000
5.894812	1.879979	11.648000
5.919699	1.880438	11.695000
6.002713	1.880216	11.741000
6.028028	1.878225	11.895000
6.226992	1.872527	11.942000
6.251840	1.868008	12.309000
6.277703	1.866253	12.355000
6.302566	1.864161	12.401000
6.327772	1.865207	12.448000
6.352355	1.866880	12.494000
6.377155	1.865753	12.540000
6.401623	1.862447	12.587000
6.426911	1.870894	12.632000
6.452364	1.873077	12.679000
6.477458	1.873209	12.725000
6.502878	1.881227	12.772000
6.595257	1.881727	12.817000
6.619842	1.897823	12.989000
6.703948	1.911806	13.035000
6.729830	1.919656	13.191000
6.754649	1.924176	13.237000
6.779507	1.928053	13.283000
6.804651	1.930874	13.329000
6.828658	1.935923	13.374000
6.853036	1.937334	13.420000
6.877388	1.939841	13.465000
6.902669	1.943405	13.511000
6.927355	1.947667	13.556000
6.952113	1.947343	13.602000
6.977369	1.951883	13.648000
7.002267	1.953242	13.694000
7.026554	1.951782	13.740000
7.051277	1.953060	13.785000
7.076209	1.956402	13.832000
7.101597	1.955740	13.878000
7.190174	1.956371	13.924000
7.215276	1.950887	14.089000
7.300393	1.946500	14.135000
7.326145	1.945913	14.291000
7.350865	1.942875	14.338000
7.376009	1.942915	14.384000
7.400225	1.938542	14.430000
7.424814	1.933689	14.476000
7.449967	1.932926	14.521000
7.474948	1.931788	14.567000
7.500576	1.932031	14.614000
7.525612	1.933168	14.660000
7.551234	1.933952	14.706000
7.575782	1.937476	14.751000
7.600922	1.936702	14.798000
7.625098	1.935211	14.844000
7.649986	1.934347	14.891000
7.675278	1.932203	14.937000
7.700657	1.927138	14.983000
7.822621	1.919352	15.029000
7.890364	1.892081	15.256000
7.915507	1.887172	15.379000
7.940593	1.885195	15.426000
7.965904	1.877748	15.472000
7.990577	1.869347	15.518000
8.015667	1.860526	15.565000
8.039815	1.854829	15.611000
8.065531	1.847999	15.657000
8.091113	1.838167	15.703000
8.116057	1.838076	15.750000
8.141421	1.827284	15.797000
8.166611	1.821303	15.843000
8.192212	1.813396	15.889000
8.217462	1.805718	15.935000
8.241989	1.798165	15.982000
8.266262	1.788884	16.028000
8.291498	1.780771	16.075000
8.497938	1.770261	16.120000
8.522878	1.675857	16.501000
8.548117	1.686573	16.547000
8.573122	1.690425	16.594000
8.598587	1.691713	16.639000
8.623130	1.691743	16.686000
8.647690	1.689960	16.732000
8.672391	1.692525	16.778000
8.698096	1.690071	16.825000
8.723310	1.687618	16.871000
8.748026	1.686371	16.917000
8.773695	1.689682	16.963000
8.798294	1.683721	17.009000
8.823255	1.685913	17.055000
8.847937	1.684737	17.101000
8.873003	1.685862	17.148000
8.897404	1.684907	17.193000
8.982239	1.680885	17.240000
9.007155	1.677488	17.396000
9.207055	1.646789	17.442000
9.232159	1.643230	17.810000
9.257043	1.637850	17.856000
9.282080	1.634089	17.903000
9.306654	1.630550	17.949000
9.331533	1.623808	17.995000
9.356664	1.619043	18.042000
9.382088	1.614571	18.088000
9.407316	1.608448	18.133000
9.432997	1.604829	18.181000
9.458223	1.597550	18.227000
9.483024	1.596070	18.274000
9.573747	1.591204	18.320000
9.599013	1.574951	18.489000
9.683740	1.565002	18.535000
9.709046	1.564212	18.691000
9.734405	1.564324	18.737000
9.758750	1.564324	18.783000
9.782992	1.563733	18.829000
9.807739	1.562305	18.875000
9.833226	1.564243	18.922000
9.858316	1.566016	18.968000
9.883552	1.564475	19.014000
9.908811	1.563289	19.060000
9.934156	1.563844	19.106000
9.959730	1.560387	19.153000
9.984421	1.559670	19.199000
10.009123	1.555116	19.246000
10.033410	1.554873	19.291000
10.058615	1.558818	19.338000
10.084153	1.560346	19.383000
10.169738	1.560034	19.431000
10.195535	1.561352	19.589000
10.280191	1.573795	19.635000
10.304852	1.576661	19.791000
10.329547	1.579240	19.838000
10.353815	1.582511	19.884000
10.379013	1.583985	19.930000
10.403903	1.588181	19.976000
10.429382	1.590452	20.022000
10.454086	1.590684	20.067000
10.479876	1.591071	20.113000
10.504659	1.589750	20.160000
10.529157	1.591930	20.206000
10.553834	1.592021	20.253000
10.579181	1.592865	20.299000
10.604522	1.592915	20.345000
10.629362	1.592480	20.391000
10.655189	1.592031	20.438000
10.680240	1.590705	20.484000
10.766008	1.594701	20.531000
10.790948	1.602984	20.689000
10.874272	1.605620	20.735000
10.899753	1.606887	20.891000
10.925397	1.609037	20.938000
10.950472	1.613414	20.984000
10.975544	1.616347	21.030000
11.000962	1.623878	21.077000
11.026260	1.627487	21.123000
11.051400	1.630925	21.169000
11.076334	1.635781	21.215000
11.100109	1.639359	21.261000
11.125710	1.640242	21.308000
11.150551	1.646477	21.353000
11.175828	1.653816	21.400000
11.201434	1.659992	21.447000
11.226347	1.669942	21.493000
11.251741	1.673976	21.540000
11.277381	1.679128	21.587000
11.476769	1.689416	21.632000
11.501598	1.738436	22.001000
11.526095	1.743131	22.046000
11.550392	1.745928	22.092000
11.575350	1.748543	22.138000
11.600823	1.748027	22.185000
11.625572	1.746750	22.231000
11.650849	1.745594	22.277000
11.676541	1.745297	22.323000
11.701478	1.742086	22.370000
11.726292	1.743950	22.416000
11.750600	1.739104	22.462000
11.775371	1.733945	22.508000
11.800656	1.729523	22.554000
11.826044	1.726909	22.600000
11.851092	1.722538	22.646000
11.876394	1.720397	22.693000
11.960435	1.717854	22.739000
11.984669	1.716192	22.894000
12.184665	1.692490	22.940000
12.209104	1.689487	23.308000
12.233986	1.689566	23.355000
12.259234	1.683853	23.401000
12.284418	1.682929	23.447000
12.309758	1.678103	23.494000
12.334662	1.673602	23.540000
12.360195	1.670185	23.586000
12.384961	1.665066	23.632000
12.409365	1.659292	23.678000
12.434003	1.651892	23.724000
12.459474	1.644784	23.771000
12.552786	1.636013	23.817000
12.578034	1.614338	23.989000
12.662687	1.591011	24.034000
12.687514	1.586120	24.191000
12.712215	1.579007	24.237000
12.736807	1.573026	24.283000
12.762282	1.569528	24.329000
12.787375	1.567507	24.375000
12.812928	1.565208	24.423000
12.837636	1.565238	24.468000
12.862359	1.561210	24.515000
12.887842	1.565410	24.560000
12.912596	1.567193	24.607000
12.936853	1.570094	24.653000
12.961887	1.570947	24.698000
12.987223	1.569892	24.744000
13.012955	1.570498	24.792000
13.037508	1.573107	24.838000
13.063199	1.574869	24.883000
13.148508	1.572497	24.929000
13.174262	1.581224	25.089000
13.257771	1.595590	25.135000
13.282640	1.598044	25.291000
13.307516	1.602203	25.337000
13.332841	1.607911	25.383000
13.358406	1.610486	25.430000
13.383623	1.614257	25.476000
13.408555	1.617290	25.522000
13.433637	1.618891	25.568000
13.458599	1.626331	25.615000
13.483425	1.631409	25.662000
13.508053	1.636299	25.707000
13.533909	1.642024	25.754000
13.558904	1.648647	25.801000
13.584306	1.653037	25.846000
13.609550	1.659504	25.893000
13.634750	1.662936	25.940000
13.659905	1.665258	25.985000
13.744086	1.668265	26.032000
13.768866	1.682788	26.189000
13.853396	1.690308	26.235000
13.879174	1.694699	26.391000
13.904345	1.696849	26.438000
13.929497	1.699575	26.484000
13.954697	1.698652	26.530000
13.979555	1.700488	26.577000
14.004670	1.700964	26.622000
14.029315	1.702160	26.670000
14.054320	1.705547	26.716000
14.078950	1.704027	26.762000
14.104328	1.702760	26.808000
14.129681	1.700519	26.854000
14.154719	1.699717	26.899000
14.179753	1.703144	26.946000
14.204533	1.698237	26.992000
14.228941	1.697132	27.038000
14.253658	1.696371	27.084000
14.454724	1.700751	27.131000
14.479358	1.712361	27.501000
14.504624	1.710312	27.548000
14.530178	1.708701	27.594000
14.555052	1.710221	27.640000
14.580773	1.710494	27.687000
14.605894	1.712259	27.733000
14.631109	1.710433	27.779000
14.656190	1.710079	27.825000
14.680427	1.704128	27.872000
14.705469	1.701065	27.918000
14.729942	1.699211	27.964000
14.755330	1.698399	28.011000
14.780842	1.698066	28.057000
14.805758	1.696057	28.103000
14.831026	1.694497	28.149000
14.856027	1.692802	28.196000
14.939716	1.693175	28.242000
14.964377	1.686092	28.397000
15.164397	1.650317	28.443000
15.189200	1.642928	28.810000
15.214577	1.637880	28.856000
15.239690	1.628773	28.902000
15.263891	1.625085	28.947000
15.289556	1.620460	28.993000
15.313499	1.616690	29.039000
15.338463	1.610729	29.086000
15.363671	1.604272	29.132000
15.388375	1.600436	29.178000
15.413969	1.593454	29.224000
15.439056	1.590038	29.271000
15.532824	1.585586	29.317000
15.557576	1.570856	29.488000
15.640984	1.562175	29.534000
15.666117	1.554610	29.691000
15.691555	1.551931	29.737000
15.716404	1.550020	29.782000
15.741593	1.548580	29.829000
15.767380	1.544571	29.875000
15.791731	1.541280	29.921000
15.816791	1.538641	29.967000
15.841009	1.532903	30.013000
15.866148	1.529552	30.060000
15.891587	1.530184	30.107000
15.916557	1.523066	30.152000
15.942328	1.520771	30.199000
15.967044	1.517308	30.246000
15.992518	1.518982	30.292000
16.017782	1.515898	30.338000
16.042302	1.516292	30.384000
16.127532	1.514271	30.431000
16.152430	1.506870	30.589000
16.237693	1.503235	30.635000
16.262284	1.499995	30.792000
16.288130	1.497669	30.837000
16.313007	1.496026	30.883000
16.338545	1.491770	30.930000
16.363053	1.490461	30.976000
16.387817	1.488777	31.023000
16.412306	1.488898	31.069000
16.437642	1.484743	31.115000
16.462940	1.488726	31.162000
16.488182	1.489131	31.208000
16.513101	1.485001	31.254000
16.538712	1.484693	31.300000
16.562896	1.481149	31.346000
16.587830	1.477848	31.392000
16.612688	1.475301	31.437000
16.637429	1.470165	31.484000
16.723063	1.467606	31.531000
16.748294	1.457880	31.688000
16.833223	1.451915	31.734000
16.858088	1.449312	31.890000
16.882939	1.446885	31.936000
16.906826	1.447385	31.982000
16.932247	1.447334	32.029000
16.957337	1.448189	32.074000
16.982762	1.446960	32.122000
17.008156	1.446086	32.168000
17.033475	1.446481	32.213000
17.058569	1.446066	32.261000
17.083753	1.450095	32.307000
17.109068	1.451703	32.353000
17.133085	1.451222	32.399000
17.158481	1.452593	32.446000
17.183277	1.454883	32.492000
17.208878	1.456794	32.538000
17.233798	1.457401	32.584000
17.433762	1.461157	32.631000
17.459259	1.482807	33.001000
17.484676	1.485345	33.047000
17.509772	1.488247	33.094000
17.534770	1.490471	33.139000
17.559398	1.495577	33.185000
17.584582	1.498968	33.232000
17.608998	1.504939	33.278000
17.633906	1.510210	33.325000
17.658989	1.514932	33.370000
17.684217	1.523905	33.416000
17.709340	1.525502	33.463000
17.734484	1.531745	33.509000
17.760180	1.538418	33.555000
17.784796	1.544601	33.601000
17.809940	1.552062	33.648000
17.833588	1.559083	33.693000
17.917620	1.562692	33.740000
17.943313	1.584782	33.895000
18.142487	1.616528	33.940000
18.167883	1.620878	34.309000
18.193048	1.625754	34.355000
18.217954	1.627224	34.401000
18.242351	1.632882	34.447000
18.266662	1.634392	34.492000
18.291789	1.634331	34.539000
18.316762	1.637197	34.584000
18.342332	1.641185	34.631000
18.367557	1.642796	34.677000
18.392880	1.647883	34.724000
18.417843	1.649863	34.770000
18.510775	1.650215	34.815000
18.535725	1.659119	34.989000
18.620383	1.663676	35.035000
18.645525	1.672943	35.191000
18.670652	1.673570	35.237000
18.695927	1.675326	35.284000
18.721079	1.674241	35.330000
18.745983	1.681419	35.376000
18.770328	1.678163	35.423000
18.795132	1.680283	35.469000
18.820672	1.681348	35.515000
18.845883	1.679792	35.561000
18.871227	1.678487	35.607000
18.896388	1.676684	35.653000
18.921772	1.677129	35.699000
18.946185	1.675872	35.745000
18.970224	1.674726	35.791000
18.994681	1.673065	35.837000
19.019944	1.676370	35.882000
19.106390	1.673267	35.929000
19.131440	1.671289	36.089000
19.216567	1.670955	36.134000
19.241900	1.669446	36.291000
19.266519	1.670063	36.338000
19.290753	1.670854	36.383000
19.315338	1.674716	36.429000
19.340774	1.676765	36.476000
19.366172	1.679228	36.521000
19.391524	1.678884	36.568000
19.416938	1.680899	36.615000
19.441727	1.681823	36.662000
19.467469	1.683609	36.708000
19.492188	1.685099	36.753000
19.517117	1.687127	36.800000
19.541034	1.685230	36.847000
19.566547	1.687572	36.893000
19.591461	1.689631	36.939000
19.616995	1.687299	36.985000
19.702373	1.687360	37.031000
19.727513	1.687683	37.189000
19.811891	1.691644	37.235000
19.836140	1.694173	37.391000
19.861294	1.695521	37.436000
19.886277	1.699535	37.483000
19.911678	1.705152	37.529000
19.936811	1.708220	37.575000
19.961644	1.714450	37.621000
19.987105	1.719559	37.667000
20.011826	1.724172	37.714000
20.036855	1.729749	37.760000
20.062007	1.739815	37.807000
20.086529	1.744732	37.853000
20.111590	1.755114	37.898000
20.136511	1.766905	37.945000
20.162272	1.775654	37.991000
20.187070	1.786272	38.037000
20.212595	1.796195	38.083000
20.413177	1.809839	38.130000
20.438358	1.888077	38.501000
20.463763	1.897935	38.548000
20.488831	1.905755	38.594000
20.513379	1.914687	38.640000
20.537753	1.927032	38.686000
20.563108	1.934190	38.732000
20.588045	1.946378	38.779000
20.612765	1.954386	38.824000
20.638769	1.960906	38.871000
20.663539	1.971921	38.917000
20.689171	1.980490	38.963000
20.713668	1.986571	39.009000
20.738080	1.996816	39.056000
20.762924	2.002463	39.101000
20.787717	2.009186	39.148000
20.813030	2.018807	39.194000
20.897352	2.025153	39.240000
20.922846	2.057716	39.395000
21.122147	2.121754	39.442000
21.147235	2.126648	39.810000
21.171957	2.136079	39.856000
21.196527	2.142190	39.903000
21.221838	2.149727	39.948000
21.246773	2.158333	39.995000
21.271928	2.173339	40.042000
21.296998	2.183152	40.087000
21.322391	2.191658	40.133000
21.347303	2.203135	40.180000
21.372345	2.207769	40.225000
21.397428	2.216560	40.272000
21.489451	2.225830	40.318000
21.514808	2.250757	40.488000
21.599082	2.268597	40.535000
21.624173	2.273997	40.690000
21.648589	2.277226	40.737000
21.673153	2.281145	40.783000
21.697891	2.284840	40.829000
21.723295	2.286436	40.875000
21.749000	2.288434	40.922000
21.773848	2.290845	40.967000
21.799396	2.289450	41.014000
21.824647	2.289970	41.061000
21.850068	2.288610	41.107000
21.874939	2.290456	41.153000
21.899534	2.284769	41.200000
21.924636	2.285846	41.246000
21.949423	2.278869	41.293000
21.974894	2.274527	41.339000
21.999671	2.268992	41.385000
22.085251	2.263012	41.431000
22.110412	2.244980	41.589000
22.194685	2.222439	41.634000
22.219656	2.215716	41.791000
22.244675	2.208876	41.838000
22.270259	2.200935	41.884000
22.295822	2.191557	41.931000
22.320442	2.190421	41.978000
22.345793	2.186377	42.024000
22.371300	2.177983	42.070000
22.396704	2.173926	42.117000
22.421473	2.167247	42.163000
22.446316	2.163321	42.209000
22.470999	2.156672	42.256000
22.496035	2.150630	42.301000
22.521481	2.143836	42.348000
22.546606	2.138179	42.394000
22.572146	2.131721	42.441000
22.596873	2.124337	42.487000
22.681731	2.117932	42.532000
22.706643	2.101022	42.689000
22.790963	2.090899	42.735000
22.815844	2.087940	42.891000
22.841213	2.083347	42.938000
22.866739	2.080133	42.984000
22.891670	2.081837	43.031000
22.917058	2.078663	43.077000
22.942104	2.075866	43.123000
22.967081	2.079258	43.169000
22.991328	2.075835	43.215000
23.016129	2.076018	43.261000
23.041403	2.074710	43.307000
23.066728	2.078451	43.354000
23.091930	2.075628	43.401000
23.117276	2.076594	43.447000
23.142049	2.073939	43.493000
23.167389	2.072955	43.539000
23.191840	2.074240	43.585000
23.393050	2.073837	43.631000
23.416542	2.060147	44.000000
23.441416	2.055923	44.046000
23.465778	2.054807	44.092000
23.491418	2.053439	44.138000
23.516423	2.052455	44.185000
23.541473	2.050143	44.230000
23.566641	2.050032	44.276000
23.591425	2.047457	44.322000
23.615951	2.046978	44.368000
23.640254	2.047255	44.415000
23.665154	2.045024	44.460000
23.690409	2.046241	44.506000
23.716018	2.040996	44.552000
23.741245	2.038695	44.599000
23.765984	2.037267	44.645000
23.791149	2.034834	44.691000
23.874217	2.032875	44.737000
23.899386	2.024440	44.892000
24.098802	2.004563	44.939000
24.123770	1.999006	45.307000
24.149484	1.993164	45.353000
24.174498	1.995344	45.400000
24.199452	1.991386	45.445000
24.224729	1.989656	45.492000
24.249366	1.983831	45.538000
24.274162	1.978178	45.583000
24.298980	1.975894	45.630000
24.324055	1.971956	45.676000
24.349231	1.964460	45.723000
24.374356	1.958722	45.769000
24.468575	1.952631	45.815000
24.494187	1.945351	45.988000
24.577075	1.934852	46.035000
24.602330	1.931828	46.190000
24.628195	1.924882	46.237000
24.653016	1.924403	46.283000
24.678348	1.919105	46.330000
24.703220	1.916364	46.376000
24.728404	1.914859	46.422000
24.754111	1.912922	46.468000
24.778817	1.911275	46.515000
24.803669	1.910168	46.561000
24.828082	1.910138	46.607000
24.853573	1.908383	46.654000
24.878704	1.907205	46.700000
24.904013	1.904798	46.746000
24.928804	1.901114	46.793000
24.954419	1.898717	46.839000
24.979497	1.900026	46.885000
25.064782	1.897874	46.931000
25.090039	1.889113	47.089000
25.173288	1.882120	47.136000
25.198874	1.875378	47.291000
25.224093	1.872077	47.338000
25.248799	1.868149	47.384000
25.274350	1.866677	47.430000
25.299047	1.859752	47.476000
25.323780	1.857366	47.522000
25.348278	1.854930	47.567000
25.373002	1.848176	47.613000
25.398273	1.846765	47.660000
25.423728	1.840795	47.706000
25.448624	1.837272	47.753000
25.474028	1.833051	47.798000
25.499656	1.829527	47.845000
25.524364	1.824558	47.891000
25.548747	1.819645	47.938000
25.573953	1.816946	47.983000
25.659491	1.812051	48.030000
25.684942	1.793176	48.189000
25.769128	1.785765	48.235000
25.794631	1.787156	48.389000
25.819666	1.780250	48.436000
25.843844	1.777500	48.482000
25.867747	1.774133	48.528000
25.892797	1.776494	48.574000
25.917780	1.774485	48.619000
25.943039	1.771851	48.665000
25.968552	1.776262	48.711000
25.993381	1.777247	48.757000
26.018631	1.779684	48.804000
26.043136	1.777035	48.850000
26.067905	1.775817	48.896000
26.092790	1.777206	48.942000
26.117913	1.775671	48.989000
26.143076	1.779002	49.035000
26.168286	1.778982	49.082000
26.370122	1.777591	49.127000
26.395443	1.803594	49.501000
26.420026	1.801522	49.547000
26.445605	1.810692	49.593000
26.470447	1.814124	49.638000
26.495799	1.820559	49.685000
26.520853	1.825422	49.731000
26.545653	1.829269	49.778000
26.570292	1.835790	49.823000
26.595238	1.843566	49.870000
26.620503	1.847741	49.917000
26.645686	1.852290	49.964000
26.671249	1.851517	50.010000
26.696262	1.859984	50.056000
26.721420	1.864969	50.102000
26.746485	1.871409	50.148000
26.771579	1.875559	50.195000
26.854376	1.880609	50.241000
26.879716	1.895912	50.395000
27.078942	1.900581	50.441000
27.104121	1.898348	50.809000
27.129465	1.897008	50.855000
27.154459	1.892847	50.901000
27.179373	1.893232	50.947000
27.203814	1.886796	50.994000
27.228226	1.886826	51.039000
27.253497	1.885210	51.085000
27.278539	1.880810	51.132000
27.303760	1.879986	51.177000
27.329214	1.875214	51.224000
27.354308	1.877874	51.270000
27.447329	1.876059	51.316000
27.471765	1.865630	51.489000
27.555981	1.858270	51.534000
27.581002	1.855121	51.690000
27.606738	1.854287	51.737000
27.631786	1.853039	51.782000
27.657295	1.845972	51.829000
27.681994	1.845577	51.875000
27.706471	1.841801	51.922000
27.731197	1.837680	51.967000
27.755905	1.836387	52.013000
27.781250	1.829971	52.060000
27.806627	1.829789	52.106000
27.832002	1.826185	52.153000
27.857434	1.822611	52.199000
27.882401	1.819932	52.246000
27.907586	1.819047	52.292000
27.932522	1.815484	52.338000
27.957002	1.813239	52.385000
28.042234	1.810276	52.430000
28.067553	1.803928	52.589000
28.152283	1.799359	52.635000
28.177114	1.798903	52.790000
28.202736	1.796790	52.837000
28.227446	1.796729	52.882000
28.252358	1.796497	52.929000
28.276443	1.793054	52.975000
28.301910	1.791168	53.022000
28.327287	1.793696	53.067000
28.352312	1.793565	53.114000
28.377781	1.792619	53.161000
28.402464	1.791421	53.207000
28.427848	1.791189	53.252000
28.452049	1.791280	53.297000
28.476037	1.791421	53.343000
28.500935	1.788586	53.389000
28.525975	1.787979	53.434000
28.550866	1.786437	53.480000
28.638720	1.790264	53.526000
28.663791	1.789930	53.688000
28.747799	1.789480	53.734000
28.771679	1.789622	53.890000
28.796325	1.791229	53.935000
28.821327	1.790354	53.981000
28.846312	1.790344	54.026000
28.870903	1.790769	54.071000
28.896178	1.792609	54.117000
28.920538	1.798730	54.163000
28.944533	1.797644	54.208000
28.969558	1.803038	54.254000
28.994122	1.806894	54.300000
29.019633	1.813037	54.346000
29.044614	1.818622	54.392000
29.069793	1.824244	54.438000
29.095191	1.830012	54.484000
29.119428	1.836958	54.531000
29.143717	1.841801	54.576000
29.348923	1.847467	54.623000
29.374490	1.888633	55.000000
29.399173	1.890828	55.046000
29.424119	1.890302	55.093000
29.449016	1.893032	55.139000
29.473405	1.894119	55.185000
29.498288	1.893532	55.231000
29.523589	1.892228	55.278000
29.548912	1.887395	55.324000
29.574168	1.888861	55.370000
29.599412	1.891317	55.417000
29.624796	1.888563	55.462000
29.649794	1.891510	55.509000
29.674829	1.891071	55.556000
29.698668	1.887496	55.601000
29.724014	1.884120	55.648000
29.748893	1.878609	55.694000
29.833369	1.874464	55.740000
29.858803	1.870344	55.895000
30.057492	1.845505	55.941000
30.082943	1.843453	56.309000
30.108131	1.838519	56.356000
30.133058	1.836735	56.402000
30.156942	1.833464	56.448000
30.182108	1.831719	56.495000
30.207421	1.829158	56.541000
30.232895	1.825553	56.587000
30.258230	1.825543	56.632000
30.282990	1.825007	56.679000
30.308564	1.820528	56.725000
30.333829	1.816863	56.772000
30.425043	1.813748	56.818000
30.449993	1.794953	56.989000
30.534836	1.777926	57.034000
30.559874	1.772795	57.191000
30.585376	1.765779	57.236000
30.609965	1.760028	57.282000
30.635013	1.757031	57.329000
30.659629	1.753776	57.376000
30.684642	1.748363	57.422000
30.709625	1.744886	57.468000
30.734902	1.738355	57.514000
30.760163	1.734554	57.561000
30.785359	1.732090	57.607000
30.810574	1.728845	57.653000
30.835780	1.727224	57.698000
30.860082	1.723167	57.745000
30.884796	1.719072	57.792000
30.910422	1.717155	57.839000
30.935296	1.715817	57.884000
31.021239	1.716200	57.932000
31.046212	1.723524	58.089000
31.130990	1.738585	58.135000
31.155402	1.744418	58.291000
31.179906	1.748505	58.336000
31.204541	1.756057	58.382000
31.229847	1.759059	58.428000
31.254989	1.765994	58.475000
31.279903	1.772319	58.520000
31.305627	1.780210	58.566000
31.330813	1.783329	58.613000
31.355698	1.789268	58.660000
31.379795	1.798155	58.705000
31.404275	1.807047	58.751000
31.429922	1.812835	58.798000
31.454863	1.818174	58.844000
31.480053	1.824184	58.889000
31.505047	1.831413	58.936000
31.530258	1.837029	58.981000
31.617189	1.841640	59.028000
31.642535	1.855824	59.189000
31.725470	1.862668	59.235000
31.750597	1.864863	59.391000
31.776258	1.865409	59.437000
31.801079	1.866394	59.482000
31.826527	1.862486	59.529000
31.851392	1.860737	59.575000
31.876511	1.861663	59.621000
31.901289	1.860110	59.666000
31.925146	1.861051	59.713000
31.950298	1.863457	59.758000
31.975190	1.859792	59.804000
32.000421	1.861815	59.851000
32.025839	1.862371	59.897000
32.050624	1.863674	59.943000
32.076106	1.864099	59.989000
32.101253	1.863664	60.035000
32.125963	1.864736	60.082000
32.327811	1.865136	60.128000
32.353327	1.927910	60.500000
32.378049	1.934134	60.547000
32.401998	1.942009	60.593000
32.426966	1.953039	60.640000
32.452141	1.960663	60.685000
32.477054	1.970778	60.731000
32.502248	1.975752	60.778000
32.527946	1.981550	60.824000
32.552690	1.990892	60.870000
32.577727	1.996117	60.916000
32.602928	2.004653	60.963000
32.627462	2.010815	61.009000
32.652345	2.016445	61.055000
32.677669	2.021230	61.102000
32.703048	2.025489	61.148000
32.728522	2.033873	61.194000
32.812110	2.037664	61.240000
32.837462	2.053892	61.395000
33.036172	2.102065	61.442000
33.060947	2.107531	61.809000
33.085438	2.117141	61.855000
33.111170	2.122554	61.902000
33.136302	2.129236	61.948000
33.161470	2.136343	61.995000
33.186856	2.142142	62.041000
33.212353	2.148286	62.087000
33.237724	2.156498	62.134000
33.262837	2.162561	62.180000
33.286733	2.171656	62.227000
33.312146	2.176633	62.273000
33.404290	2.185759	62.320000
33.429369	2.205385	62.488000
33.513176	2.218898	62.535000
33.537682	2.223100	62.690000
33.562285	2.226734	62.736000
33.587909	2.232330	62.782000
33.612830	2.235009	62.828000
33.637844	2.238613	62.874000
33.663003	2.241384	62.920000
33.688466	2.245327	62.966000
33.713822	2.248006	63.013000
33.738374	2.250129	63.060000
33.763157	2.252566	63.106000
33.787967	2.253763	63.152000
33.812800	2.254962	63.198000
33.838505	2.250331	63.245000
33.863376	2.252849	63.291000
33.888663	2.254583	63.337000
33.913246	2.256858	63.382000
34.000146	2.256807	63.429000
34.025128	2.253061	63.588000
34.108267	2.248128	63.635000
34.133980	2.248698	63.791000
34.159005	2.244877	63.836000
34.184038	2.245771	63.882000
34.209124	2.245579	63.928000
34.234264	2.243740	63.974000
34.258702	2.243265	64.020000
34.283266	2.243649	64.066000
34.307799	2.244594	64.112000
34.332471	2.244786	64.158000
34.357860	2.243710	64.204000
34.382862	2.245144	64.250000
34.408133	2.243376	64.296000
34.432697	2.241955	64.341000
34.457369	2.240383	64.387000
34.482094	2.236258	64.433000
34.506873	2.239883	64.479000
34.595172	2.239048	64.526000
34.619690	2.236748	64.689000
34.704553	2.232239	64.735000
34.729855	2.232654	64.891000
34.754899	2.233427	64.936000
34.779732	2.232846	64.982000
34.805061	2.231334	65.028000
34.829340	2.228473	65.074000
34.853367	2.230379	65.120000
34.878841	2.229555	65.166000
34.903593	2.226997	65.212000
34.928757	2.226197	65.258000
34.953785	2.224783	65.304000
34.978841	2.222397	65.349000
35.003109	2.219900	65.395000
35.027735	2.216654	65.441000
35.052852	2.217473	65.487000
35.077543	2.215375	65.533000
35.102775	2.212772	65.579000
35.306187	2.212155	65.625000
35.330190	2.188859	66.001000
35.355968	2.184775	66.047000
35.380375	2.180252	66.092000
35.406011	2.175427	66.138000
35.430575	2.172700	66.184000
35.455834	2.165674	66.230000
35.480748	2.162318	66.276000
35.504989	2.154832	66.323000
35.530498	2.149946	66.369000
35.555377	2.145327	66.415000
35.580798	2.143076	66.462000
35.606069	2.138452	66.508000
35.630844	2.129327	66.554000
35.656480	2.122840	66.600000
35.681866	2.114099	66.647000
35.707079	2.104770	66.694000
35.790018	2.097774	66.740000
35.815258	2.071119	66.895000
36.014867	2.011919	66.942000
36.039684	2.007917	67.310000
36.065320	2.002168	67.356000
36.090876	1.999988	67.403000
36.116043	1.993424	67.449000
36.141091	1.984360	67.494000
36.165862	1.979132	67.541000
36.190941	1.974441	67.588000
36.215186	1.967799	67.633000
36.240200	1.961131	67.679000
36.265186	1.956268	67.726000
36.290910	1.948914	67.773000
36.383381	1.941513	67.819000
36.408045	1.928466	67.988000
36.491295	1.907366	68.035000
36.516635	1.901183	68.190000
36.541860	1.894217	68.237000
36.567035	1.887610	68.282000
36.592017	1.884522	68.329000
36.617261	1.875093	68.375000
36.642582	1.871469	68.421000
36.666870	1.863683	68.467000
36.691464	1.855560	68.513000
36.716624	1.849863	68.560000
36.741699	1.842073	68.606000
36.767442	1.834703	68.652000
36.792244	1.829799	68.699000
36.817569	1.823323	68.745000
36.842798	1.817434	68.790000
36.867681	1.815402	68.837000
36.892510	1.812885	68.883000
36.977881	1.810438	68.929000
37.003463	1.803694	69.089000
37.087646	1.798342	69.134000
37.112948	1.795405	69.291000
37.138303	1.793418	69.337000
37.163179	1.792442	69.382000
37.188127	1.793479	69.429000
37.212038	1.793833	69.475000
37.237028	1.791851	69.521000
37.261681	1.797194	69.567000
37.287182	1.794258	69.612000
37.312011	1.795355	69.658000
37.336629	1.797508	69.704000
37.361589	1.794748	69.749000
37.385415	1.799985	69.795000
37.409952	1.800818	69.840000
37.435165	1.802169	69.886000
37.460125	1.804352	69.932000
37.484904	1.804261	69.978000
37.574451	1.806951	70.024000
37.599365	1.817010	70.188000
37.684432	1.824982	70.234000
37.710037	1.826333	70.390000
37.734862	1.830068	70.437000
37.760441	1.836619	70.483000
37.784163	1.839086	70.530000
37.809480	1.844712	70.576000
37.835024	1.848479	70.622000
37.859972	1.855920	70.668000
37.884778	1.856602	70.714000
37.909795	1.858255	70.761000
37.936050	1.857952	70.807000
37.961052	1.855940	70.854000
37.985646	1.858113	70.901000
38.010587	1.858836	70.947000
38.034967	1.859272	70.992000
38.060387	1.863497	71.039000
38.085305	1.867086	71.085000
38.285609	1.867536	71.132000
38.310054	1.888364	71.501000
38.335855	1.889602	71.547000
38.361141	1.892539	71.593000
38.385724	1.893247	71.639000
38.411095	1.892853	71.686000
38.436523	1.894365	71.731000
38.460588	1.891321	71.778000
38.485067	1.895840	71.824000
38.510834	1.890416	71.871000
38.536400	1.891705	71.917000
38.561018	1.894142	71.963000
38.586281	1.890967	72.009000
38.611376	1.889228	72.056000
38.636666	1.889870	72.102000
38.661556	1.887969	72.148000
38.686931	1.892640	72.195000
38.769693	1.891968	72.241000
38.795241	1.902599	72.395000
38.994388	1.970007	72.442000
39.019336	1.976110	72.810000
39.045176	1.986271	72.856000
39.070159	1.993035	72.901000
39.094212	2.000693	72.948000
39.119348	2.013873	72.994000
39.143447	2.019541	73.040000
39.169483	2.025957	73.087000
39.194938	2.032508	73.134000
39.220282	2.038661	73.180000
39.244565	2.045758	73.226000
39.269832	2.050452	73.272000
39.362491	2.059512	73.318000
39.386141	2.072117	73.488000
39.471965	2.089627	73.534000
39.496114	2.096318	73.690000
39.521300	2.105638	73.735000
39.545911	2.117852	73.781000
39.569856	2.124314	73.827000
39.594489	2.130204	73.872000
39.620152	2.144145	73.919000
39.645446	2.146942	73.965000
39.670083	2.159707	74.011000
39.695538	2.170105	74.056000
39.720832	2.177379	74.103000
39.745673	2.186006	74.149000
39.770763	2.195687	74.195000
39.795316	2.199276	74.242000
39.819791	2.202703	74.288000
39.844720	2.210566	74.334000
39.870610	2.217093	74.381000
39.957356	2.221278	74.427000
39.983299	2.234098	74.589000
40.067341	2.243116	74.634000
40.093284	2.247175	74.791000
40.118255	2.250967	74.837000
40.142151	2.251675	74.883000
40.166611	2.256886	74.928000
40.191563	2.260132	74.975000
40.216476	2.264550	75.020000
40.241709	2.267699	75.066000
40.267210	2.270085	75.112000
40.292581	2.277688	75.158000
40.316765	2.280348	75.205000
40.342232	2.289254	75.251000
40.366246	2.292236	75.297000
40.391006	2.297489	75.343000
40.416162	2.307124	75.389000
40.442093	2.310198	75.436000
40.467211	2.315435	75.481000
40.553918	2.315597	75.529000
40.579251	2.325718	75.689000
40.662778	2.329671	75.734000
40.687906	2.326734	75.890000
40.712082	2.327891	75.936000
40.737107	2.323453	75.981000
40.763170	2.320147	76.028000
40.787419	2.314606	76.074000
40.812578	2.311345	76.121000
40.838295	2.309172	76.166000
40.863485	2.304177	76.213000
40.887292	2.298818	76.259000
40.912755	2.292606	76.305000
40.937849	2.286540	76.352000
40.962475	2.283597	76.398000
40.987642	2.277809	76.445000
41.013251	2.277982	76.490000
41.038971	2.271921	76.537000
41.063520	2.269181	76.583000
41.264730	2.266653	76.630000
41.289598	2.267951	77.000000
41.314500	2.269574	77.047000
41.340067	2.272703	77.093000
41.363712	2.275818	77.138000
41.388599	2.280600	77.184000
41.414212	2.282379	77.231000
41.439425	2.287191	77.277000
41.464224	2.292327	77.324000
41.489345	2.297241	77.370000
41.515196	2.304464	77.417000
41.540743	2.308014	77.464000
41.565465	2.313508	77.509000
41.590232	2.319161	77.556000
41.614766	2.321961	77.602000
41.639568	2.326874	77.648000
41.664908	2.330747	77.695000
41.749426	2.334534	77.741000
41.774601	2.349507	77.896000
41.974328	2.383269	77.942000
41.998627	2.388769	78.311000
42.022915	2.390740	78.356000
42.048351	2.394062	78.403000
42.072592	2.400224	78.449000
42.097644	2.401593	78.494000
42.123149	2.402620	78.540000
42.148885	2.405289	78.587000
42.173664	2.408782	78.633000
42.199527	2.409080	78.680000
42.224171	2.406254	78.726000
42.247825	2.407261	78.771000
42.340837	2.409464	78.818000
42.365962	2.419370	78.989000
42.450860	2.427663	79.034000
42.475413	2.429438	79.189000
42.499819	2.432939	79.236000
42.524264	2.434712	79.282000
42.549446	2.436842	79.328000
42.574168	2.440430	79.374000
42.599769	2.440451	79.421000
42.625367	2.447436	79.467000
42.650373	2.449207	79.513000
42.675079	2.454154	79.559000
42.700134	2.457758	79.605000
42.724222	2.461933	79.651000
42.748867	2.470095	79.698000
42.774476	2.473330	79.744000
42.799827	2.480811	79.790000
42.824449	2.482531	79.836000
42.849777	2.495005	79.882000
42.936912	2.502648	79.928000
42.961145	2.522338	80.089000
43.045775	2.549195	80.135000
43.069474	2.558180	80.290000
43.095471	2.564040	80.335000
43.120070	2.574827	80.381000
43.144980	2.583201	80.427000
43.169544	2.592933	80.473000
43.194822	2.601715	80.518000
43.218795	2.610221	80.564000
43.242721	2.620366	80.610000
43.268364	2.631207	80.655000
43.292479	2.641772	80.701000
43.318138	2.652671	80.747000
43.343174	2.660946	80.792000
43.368530	2.666865	80.839000
43.392548	2.677962	80.885000
43.417846	2.686105	80.932000
43.443182	2.696817	80.978000
43.568738	2.697161	81.025000
43.635983	2.731500	81.256000
43.660974	2.731247	81.380000
43.684915	2.734852	81.426000
43.710232	2.734149	81.472000
43.736049	2.739073	81.517000
43.761458	2.735883	81.565000
43.785745	2.733825	81.611000
43.811685	2.734882	81.657000
43.836518	2.731561	81.704000
43.861854	2.732728	81.750000
43.886637	2.728705	81.797000
43.911927	2.730302	81.843000
43.936164	2.727673	81.889000
43.961112	2.730342	81.936000
43.986814	2.731197	81.982000
44.012284	2.731884	82.028000
44.037175	2.731510	82.075000
44.242861	2.736020	82.121000
44.268374	2.736374	82.500000
44.292269	2.769713	82.547000
44.317256	2.796995	82.593000
44.342965	2.815199	82.639000
44.367951	2.835101	82.686000
44.392792	2.850326	82.732000
44.418301	2.865883	82.778000
44.443918	2.877255	82.825000
44.468363	2.888714	82.870000
44.494333	2.900100	82.917000
44.519327	2.911272	82.964000
44.542931	2.919970	83.010000
44.568202	2.932012	83.056000
44.593588	2.944950	83.103000
44.619116	2.954227	83.149000
44.643484	2.964593	83.195000
44.728632	2.974976	83.241000
44.752013	3.010124	83.396000
44.952397	3.075394	83.442000
44.976543	3.084463	83.811000
45.001710	3.099021	83.857000
45.028537	3.110891	83.904000
45.053800	3.115905	83.950000
45.078748	3.126996	83.997000
45.104038	3.134437	84.043000
45.129386	3.147950	84.089000
45.154695	3.157676	84.136000
45.179551	3.167301	84.182000
45.204703	3.177780	84.228000
45.228925	3.184175	84.274000
45.320039	3.197106	84.321000
45.345806	3.234018	84.488000
45.428895	3.277564	84.535000
45.454177	3.288985	84.690000
45.479045	3.304357	84.737000
45.503862	3.322838	84.782000
45.529798	3.336900	84.829000
45.555211	3.355027	84.876000
45.580293	3.369251	84.922000
45.605142	3.383596	84.968000
45.631127	3.398232	85.015000
45.655772	3.415091	85.061000
45.679502	3.427358	85.107000
45.705038	3.442738	85.154000
45.730459	3.453636	85.199000
45.754842	3.462109	85.246000
45.781050	3.472302	85.293000
45.805960	3.481589	85.339000
45.830121	3.493571	85.384000
45.916971	3.499826	85.431000
45.940586	3.529854	85.588000
46.024939	3.536547	85.635000
46.049595	3.543513	85.790000
46.075008	3.544852	85.836000
46.100797	3.551218	85.882000
46.125738	3.559027	85.929000
46.150467	3.565017	85.975000
46.175269	3.572837	86.021000
46.199895	3.580896	86.067000
46.224359	3.593690	86.113000
46.249438	3.604614	86.160000
46.275239	3.617384	86.206000
46.300310	3.631821	86.252000
46.325135	3.647916	86.298000
46.350406	3.661939	86.344000
46.375404	3.680466	86.390000
46.399811	3.698033	86.437000
46.425297	3.719279	86.483000
46.510464	3.741364	86.530000
46.536234	3.826420	86.688000
46.620937	3.916191	86.734000
46.646146	3.944019	86.890000
46.672043	3.969704	86.937000
46.696684	3.995030	86.983000
46.720791	4.018890	87.030000
46.745850	4.044490	87.075000
46.771110	4.069215	87.122000
46.795897	4.090233	87.168000
46.820906	4.117576	87.213000
46.846700	4.138580	87.261000
46.871133	4.163087	87.306000
46.896058	4.184629	87.352000
46.921652	4.208817	87.398000
46.945924	4.232047	87.445000
46.970227	4.256728	87.490000
46.995947	4.278120	87.537000
47.021172	4.299613	87.582000
47.221695	4.322423	87.629000
47.247622	4.511046	88.001000
47.272532	4.533396	88.047000
47.297288	4.558969	88.093000
47.322544	4.580355	88.140000
47.348091	4.609481	88.186000
47.372886	4.636189	88.231000
47.397200	4.662547	88.277000
47.422629	4.690237	88.324000
47.446674	4.716792	88.370000
47.472137	4.744186	88.416000
47.497746	4.770859	88.462000
47.523159	4.799492	88.509000
47.547742	4.826723	88.555000
47.572898	4.851630	88.602000
47.598603	4.877876	88.648000
47.623716	4.902874	88.695000
47.706617	4.926892	88.741000
47.731446	5.013298	88.895000
47.930286	5.209288	88.941000
47.956229	5.229790	89.309000
47.980778	5.249679	89.356000
48.006210	5.268170	89.402000
48.031961	5.286061	89.448000
48.056813	5.301818	89.494000
48.080809	5.315668	89.541000
48.105884	5.332663	89.587000
48.131301	5.346394	89.633000
48.155258	5.362590	89.679000
48.180575	5.386127	89.724000
48.206172	5.411337	89.770000
48.298750	5.439246	89.816000
48.323372	5.543591	89.988000
48.407263	5.631566	90.034000
48.432961	5.655016	90.191000
48.458800	5.677053	90.237000
48.484179	5.700792	90.283000
48.508278	5.723268	90.330000
48.533994	5.744999	90.375000
48.558374	5.768435	90.422000
48.582039	5.788671	90.467000
48.608197	5.813927	90.514000
48.633122	5.834060	90.560000
48.657967	5.850621	90.606000
48.683399	5.863961	90.653000
48.709292	5.882136	90.699000
48.734498	5.896139	90.746000
48.759035	5.910303	90.792000
48.784771	5.927132	90.838000
48.809392	5.945794	90.884000
48.894429	5.964501	90.931000
48.919731	6.026176	91.089000
49.003980	6.066426	91.135000
49.029850	6.077333	91.291000
49.054629	6.096658	91.337000
49.079401	6.114331	91.383000
49.104502	6.135441	91.429000
49.128621	6.158386	91.475000
49.153627	6.187316	91.522000
49.179232	6.214104	91.567000
49.204514	6.245682	91.614000
49.228974	6.280609	91.661000
49.254645	6.310993	91.706000
49.280346	6.343954	91.753000
49.305694	6.378575	91.800000
49.330089	6.418011	91.846000
49.355241	6.456717	91.892000
49.379470	6.497859	91.938000
49.404269	6.542468	91.985000
49.490888	6.588510	92.032000
49.515644	6.756575	92.189000
49.600604	6.922540	92.236000
49.625080	6.974297	92.391000
49.650135	7.025530	92.437000
49.675310	7.073570	92.483000
49.699429	7.125181	92.530000
49.724830	7.180220	92.577000
49.750297	7.230383	92.622000
49.775933	7.284568	92.669000
49.800635	7.336720	92.715000
49.825587	7.385678	92.761000
49.851331	7.433164	92.808000
49.875334	7.481279	92.854000
49.899878	7.528256	92.899000
49.925192	7.578554	92.946000
49.950574	7.625828	92.992000
49.975472	7.672109	93.039000
50.001012	7.718627	93.084000
50.200912	7.762197	93.131000
50.225826	8.086892	93.501000
50.251754	8.129222	93.547000
50.277009	8.171443	93.594000
50.301938	8.212240	93.640000
50.327186	8.251865	93.687000
50.352123	8.293960	93.733000
50.376491	8.335830	93.779000
50.401147	8.378653	93.826000
50.427263	8.418372	93.873000
50.452561	8.462605	93.919000
50.477501	8.505515	93.965000
50.502738	8.551528	94.012000
50.528228	8.602832	94.057000
50.552769	8.653822	94.104000
50.578209	8.707412	94.150000
50.602930	8.762755	94.196000
50.686307	8.814859	94.243000
50.712212	8.985425	94.398000
50.910714	9.416616	94.444000
50.935766	9.476642	94.812000
50.961759	9.538930	94.857000
50.986692	9.603814	94.904000
51.010487	9.670851	94.949000
51.036169	9.738725	94.996000
51.060534	9.811309	95.042000
51.085109	9.885492	95.088000
51.110956	9.957728	95.134000
51.136623	10.035410	95.181000
51.160753	10.111045	95.226000
51.186527	10.190852	95.273000
51.277388	10.259490	95.319000
51.302413	10.504750	95.489000
51.387323	10.715590	95.535000
51.412321	10.778523	95.691000
51.437538	10.835298	95.737000
51.462824	10.887478	95.783000
51.487342	10.941546	95.829000
51.511637	10.987791	95.876000
51.537192	11.022989	95.922000
51.562175	11.050939	95.969000
51.587204	11.078125	96.014000
51.613262	11.109521	96.061000
51.638164	11.144202	96.107000
51.663066	11.188736	96.154000
51.688264	11.235038	96.200000
51.712732	11.288394	96.246000
51.737070	11.346647	96.292000
51.762283	11.410908	96.338000
51.787546	11.481897	96.385000
51.872786	11.558564	96.431000
51.898564	11.868310	96.589000
51.982802	12.215986	96.634000
52.008392	12.313910	96.790000
52.032848	12.412105	96.837000
52.057193	12.512458	96.883000
52.082061	12.617059	96.929000
52.107647	12.724886	96.975000
52.133202	12.839038	97.022000
52.157812	12.948068	97.067000
52.183183	13.063967	97.114000
52.208108	13.179295	97.160000
52.232564	13.292499	97.205000
52.257509	13.402991	97.252000
52.282153	13.517157	97.298000
52.307589	13.628779	97.345000
52.332411	13.733927	97.391000
52.358246	13.834953	97.437000
52.383348	13.931127	97.483000
52.469407	14.026727	97.529000
52.494520	14.342426	97.688000
52.578231	14.645159	97.735000
52.603448	14.735499	97.891000
52.628327	14.830139	97.937000
52.653556	14.926022	97.983000
52.679161	15.023765	98.029000
52.703814	15.128062	98.075000
52.729035	15.228246	98.122000
52.754298	15.332889	98.167000
52.778389	15.434459	98.213000
52.802665	15.543002	98.259000
52.828823	15.654453	98.306000
52.853633	15.760116	98.352000
52.878820	15.865120	98.398000
52.904210	15.962059	98.444000
52.929934	16.064900	98.491000
52.954748	16.161871	98.537000
52.979200	16.256377	98.583000
52.991640	16.396543	98.630000
53.189769	16.439793	98.676000
53.215605	17.032584	99.020000
53.241371	17.114518	99.066000
53.266423	17.206625	99.113000
53.291848	17.292591	99.159000
53.315931	17.390662	99.206000
53.340104	17.487382	99.252000
53.366124	17.584325	99.298000
53.391364	17.679524	99.344000
53.416220	17.770054	99.391000
53.441160	17.866737	99.437000
53.467027	17.962633	99.482000
53.491829	18.068898	99.529000
53.516351	18.174378	99.575000
53.542286	18.275951	99.622000
53.566743	18.376507	99.668000
53.659904	18.470846	99.715000
53.685940	18.818191	99.889000
53.884546	19.508160	99.935000
53.909909	19.599165	100.303000
53.935414	19.694534	100.348000
53.960785	19.786921	100.395000
53.985533	19.875896	100.442000
54.010704	19.962710	100.488000
54.035410	20.047646	100.534000
54.060209	20.129944	100.580000
54.085495	20.212167	100.627000
54.110520	20.293842	100.672000
54.135322	20.374169	100.718000
54.160535	20.457118	100.765000
54.256640	20.538645	100.810000
54.282103	20.853718	100.989000
54.366613	21.130535	101.035000
54.390889	21.217527	101.191000
54.415711	21.306499	101.237000
54.440974	21.391371	101.283000
54.466056	21.470865	101.329000
54.490521	21.544565	101.376000
54.515914	21.605501	101.421000
54.541508	21.675971	101.467000
54.566740	21.758350	101.513000
54.590905	21.842331	101.560000
54.616706	21.932989	101.606000
54.641443	22.029348	101.652000
54.665842	22.119475	101.698000
54.691501	22.211229	101.745000
54.717048	22.306150	101.792000
54.741416	22.387927	101.838000
54.767356	22.470771	101.884000
54.853172	22.562218	101.931000
54.877582	22.892786	102.088000
54.960975	23.301151	102.135000
54.986661	23.415592	102.291000
55.012220	23.529579	102.338000
55.037506	23.644060	102.383000
55.062477	23.758101	102.430000
55.087083	23.876401	102.476000
55.113461	23.994753	102.522000
55.138420	24.119389	102.569000
55.162239	24.248649	102.615000
55.187591	24.382670	102.661000
55.212424	24.521752	102.708000
55.237422	24.666365	102.754000
55.262958	24.808983	102.800000
55.288674	24.953380	102.847000
55.313561	25.107108	102.893000
55.338755	25.268694	102.940000
55.364206	25.434249	102.986000
55.447906	25.606417	103.032000
55.472789	26.195393	103.189000
55.557537	26.773615	103.235000
55.583400	26.940758	103.391000
55.608291	27.102492	103.438000
55.632816	27.257680	103.483000
55.657999	27.419563	103.529000
55.683158	27.577382	103.576000
55.707442	27.741682	103.621000
55.732394	27.903133	103.668000
55.757722	28.065033	103.714000
55.782198	28.234220	103.760000
55.807680	28.404143	103.807000
55.833520	28.588587	103.853000
55.858679	28.763840	103.899000
55.883159	28.937584	103.945000
55.908203	29.110044	103.992000
55.933239	29.278487	104.038000
55.957723	29.449878	104.084000
56.158795	29.620186	104.130000
56.184081	30.976834	104.501000
56.208660	31.143501	104.548000
56.233682	31.304688	104.594000
56.259198	31.472603	104.640000
56.284734	31.644339	104.686000
56.309014	31.822608	104.732000
56.334930	32.006829	104.779000
56.359694	32.184130	104.825000
56.383136	32.363573	104.870000
56.408507	32.540704	104.917000
56.433236	32.720534	104.962000
56.458227	32.902399	105.008000
56.483306	33.082680	105.054000
56.508907	33.265085	105.101000
56.534070	33.450158	105.146000
56.558504	33.636303	105.192000
56.641665	33.830944	105.239000
56.666218	34.539270	105.393000
56.866437	36.196215	105.439000
56.891266	36.388489	105.807000
56.916099	36.577170	105.854000
56.941751	36.760662	105.900000
56.967052	36.942679	105.946000
56.991416	37.119739	105.992000
57.016261	37.299005	106.038000
57.040813	37.486777	106.084000
57.065712	37.677874	106.130000
57.090506	37.875935	106.177000
57.116810	38.080746	106.223000
57.141716	38.287494	106.269000
57.235504	38.491494	106.315000
57.260864	39.219537	106.489000
57.344129	39.913353	106.535000
57.369408	40.115540	106.691000
57.394441	40.323018	106.736000
57.419423	40.548270	106.782000
57.444491	40.769470	106.829000
57.470403	40.988404	106.875000
57.494690	41.207648	106.921000
57.520561	41.421144	106.967000
57.545543	41.647504	107.014000
57.570011	41.880124	107.061000
