Sample	2mm tape 
date	07/01/2025
	
Temperature (K)	77.00
Angle (deg.)	60.000000
field / T	0.000000
	
		
Approx. trace time (s)	120.0	
		
Current / A	V1  -sample/ uV	time/s
-0.018535	-0.302054	0.000000
-0.017885	-0.296896	0.046000
-0.018062	-0.291841	0.093000
-0.017848	-0.285800	0.138000
-0.018013	-0.280910	0.184000
-0.018259	-0.272483	0.231000
-0.017780	-0.235224	0.597000
-0.018265	-0.231452	0.644000
-0.017595	-0.226922	0.690000
-0.018296	-0.223119	0.736000
0.007246	-0.218164	0.782000
0.032907	-0.210092	0.829000
0.057284	-0.203371	0.875000
0.082742	-0.196404	0.921000
0.107296	-0.188853	0.967000
0.133741	-0.181299	1.013000
0.157778	-0.172887	1.059000
0.183602	-0.167386	1.106000
0.209475	-0.159576	1.152000
0.233000	-0.152795	1.199000
0.257798	-0.144953	1.244000
0.283093	-0.136843	1.291000
0.367937	-0.130353	1.337000
0.448773	-0.098975	1.492000
0.473733	-0.092554	1.643000
0.498777	-0.085243	1.689000
0.523981	-0.075403	1.735000
0.549234	-0.066209	1.781000
0.574689	-0.058119	1.828000
0.600153	-0.048534	1.875000
0.625080	-0.037835	1.921000
0.649952	-0.029906	1.968000
0.673838	-0.022251	2.013000
0.699067	-0.013745	2.060000
0.724236	-0.005641	2.105000
0.749526	0.002965	2.152000
0.774571	0.011346	2.198000
0.799714	0.020811	2.244000
0.824905	0.028145	2.290000
0.849868	0.034452	2.337000
0.874237	0.040743	2.382000
0.958604	0.045248	2.428000
1.044351	0.070056	2.584000
1.069370	0.073684	2.743000
1.094818	0.076277	2.789000
1.120179	0.079945	2.835000
1.145358	0.083183	2.882000
1.170126	0.087142	2.928000
1.194508	0.089334	2.974000
1.219227	0.090150	3.020000
1.244372	0.090020	3.066000
1.269514	0.088583	3.113000
1.294819	0.088863	3.159000
1.319593	0.088188	3.205000
1.345066	0.088813	3.251000
1.370512	0.091256	3.297000
1.395372	0.091035	3.344000
1.419521	0.091456	3.389000
1.444280	0.092632	3.436000
1.469318	0.092007	3.482000
1.554315	0.092462	3.529000
1.640726	0.101085	3.685000
1.665617	0.101055	3.843000
1.690630	0.101811	3.889000
1.715373	0.101791	3.936000
1.740255	0.101275	3.982000
1.764825	0.102747	4.028000
1.790072	0.101861	4.074000
1.815538	0.102392	4.121000
1.840827	0.102472	4.167000
1.866108	0.100059	4.213000
1.891506	0.099408	4.260000
1.916366	0.100434	4.306000
1.941249	0.098593	4.352000
1.965778	0.097948	4.398000
1.990639	0.092191	4.444000
2.015857	0.088783	4.491000
2.040969	0.084580	4.537000
2.066060	0.080400	4.583000
2.150940	0.075181	4.628000
2.351469	-0.004031	4.784000
2.376223	-0.013105	5.156000
2.401610	-0.022349	5.202000
2.426324	-0.031070	5.248000
2.451633	-0.041288	5.295000
2.475984	-0.050204	5.340000
2.501343	-0.060763	5.387000
2.525964	-0.070896	5.433000
2.551512	-0.082066	5.479000
2.576735	-0.094277	5.525000
2.601606	-0.104776	5.571000
2.627181	-0.117050	5.618000
2.651459	-0.130443	5.664000
2.861328	-0.143065	5.710000
2.886474	-0.239163	6.097000
2.911432	-0.248371	6.142000
2.935943	-0.257639	6.189000
2.960795	-0.267398	6.236000
2.986030	-0.276657	6.282000
3.011082	-0.285770	6.328000
3.036863	-0.294833	6.375000
3.062115	-0.302435	6.421000
3.087462	-0.312635	6.467000
3.112101	-0.323009	6.513000
3.137524	-0.334670	6.560000
3.161723	-0.346821	6.607000
3.186447	-0.356774	6.653000
3.211955	-0.367429	6.699000
3.236925	-0.376888	6.745000
3.262234	-0.388718	6.792000
3.346106	-0.401421	6.837000
3.427594	-0.472121	6.993000
3.453053	-0.482790	7.143000
3.477886	-0.494543	7.190000
3.503679	-0.503567	7.236000
3.528449	-0.515036	7.282000
3.553782	-0.523875	7.329000
3.578156	-0.530612	7.375000
3.602712	-0.536542	7.421000
3.628226	-0.540596	7.468000
3.653281	-0.544269	7.514000
3.678563	-0.548706	7.561000
3.703466	-0.551840	7.607000
3.728972	-0.552784	7.653000
3.753654	-0.553494	7.699000
3.778511	-0.552209	7.744000
3.803475	-0.551055	7.791000
3.828422	-0.548067	7.837000
3.853498	-0.547292	7.884000
3.937837	-0.545708	7.931000
4.023574	-0.538863	8.086000
4.048805	-0.538217	8.243000
4.074076	-0.536079	8.290000
4.098966	-0.534514	8.335000
4.123288	-0.532586	8.382000
4.148275	-0.530911	8.428000
4.173024	-0.522991	8.475000
4.198638	-0.527799	8.521000
4.223626	-0.524126	8.567000
4.249021	-0.520292	8.614000
4.274464	-0.515306	8.660000
4.299063	-0.510728	8.706000
4.323235	-0.506516	8.751000
4.347746	-0.501769	8.797000
4.372286	-0.497527	8.843000
4.397563	-0.493709	8.887000
4.422481	-0.487607	8.934000
4.447813	-0.480431	8.979000
4.533670	-0.470628	9.026000
4.619703	-0.425378	9.185000
4.644411	-0.417389	9.344000
4.668963	-0.409433	9.390000
4.694184	-0.405920	9.436000
4.719239	-0.403551	9.483000
4.744535	-0.401213	9.529000
4.769813	-0.400139	9.576000
4.795105	-0.398760	9.622000
4.820143	-0.396595	9.668000
4.845340	-0.392918	9.714000
4.870355	-0.389150	9.761000
4.894732	-0.385772	9.807000
4.919847	-0.382658	9.853000
4.944597	-0.380407	9.899000
4.969848	-0.377079	9.945000
4.994928	-0.372585	9.991000
5.020414	-0.369127	10.037000
5.045357	-0.364262	10.083000
5.128509	-0.357681	10.130000
5.330454	-0.266462	10.285000
5.354878	-0.257850	10.656000
5.380111	-0.251628	10.703000
5.404641	-0.244883	10.749000
5.430153	-0.237361	10.795000
5.455460	-0.229994	10.840000
5.480363	-0.222878	10.887000
5.505287	-0.215841	10.933000
5.530879	-0.210122	10.979000
5.555753	-0.204271	11.026000
5.579956	-0.196289	11.072000
5.605012	-0.190248	11.118000
5.630047	-0.183787	11.165000
5.839406	-0.177455	11.211000
5.864346	-0.151195	11.597000
5.889704	-0.148586	11.643000
5.914859	-0.145324	11.690000
5.940146	-0.142001	11.736000
5.965875	-0.137827	11.783000
5.990736	-0.133741	11.829000
6.016350	-0.129637	11.875000
6.041272	-0.124391	11.922000
6.065601	-0.120553	11.967000
6.090535	-0.113882	12.015000
6.115008	-0.109503	12.061000
6.140632	-0.103502	12.107000
6.165454	-0.099445	12.153000
6.190914	-0.094913	12.199000
6.216006	-0.088866	12.246000
6.241526	-0.082404	12.292000
6.324199	-0.076768	12.338000
6.406510	-0.043867	12.492000
6.432558	-0.037052	12.644000
6.457226	-0.031466	12.691000
6.481308	-0.024738	12.735000
6.506043	-0.020161	12.781000
6.530718	-0.016179	12.827000
6.556235	-0.010133	12.874000
6.581342	-0.007373	12.921000
6.606736	-0.003252	12.967000
6.631694	-0.001862	13.014000
6.657081	0.000526	13.059000
6.682161	0.003035	13.105000
6.706518	0.004918	13.152000
6.731241	0.006649	13.198000
6.756256	0.009227	13.244000
6.781264	0.008441	13.290000
6.806541	0.008123	13.336000
6.831821	0.006819	13.382000
6.916540	0.005735	13.429000
7.002129	0.002735	13.584000
7.027336	0.002360	13.743000
7.051859	0.003695	13.789000
7.077041	0.004590	13.836000
7.101637	0.005244	13.882000
7.126694	0.007322	13.928000
7.152041	0.009751	13.974000
7.177248	0.011326	14.020000
7.202254	0.014074	14.066000
7.226861	0.018062	14.112000
7.251202	0.022384	14.158000
7.276588	0.027997	14.204000
7.301749	0.033767	14.251000
7.326867	0.038812	14.297000
7.351840	0.043356	14.343000
7.377589	0.047084	14.390000
7.402809	0.052194	14.436000
7.427826	0.056668	14.482000
7.512080	0.063150	14.529000
7.597610	0.092752	14.685000
7.623048	0.095940	14.844000
7.648190	0.099187	14.890000
7.673505	0.098272	14.936000
7.698340	0.097606	14.982000
7.724239	0.098812	15.029000
7.749393	0.099167	15.075000
7.774853	0.099347	15.121000
7.798932	0.099548	15.168000
7.823504	0.100794	15.214000
7.849072	0.102695	15.261000
7.874146	0.103852	15.307000
7.899607	0.107671	15.353000
7.924627	0.111409	15.399000
7.949702	0.111399	15.446000
7.974793	0.113962	15.492000
7.999334	0.115763	15.538000
8.023929	0.117900	15.584000
8.107816	0.118756	15.630000
8.308683	0.102776	15.785000
8.333894	0.104663	16.156000
8.359338	0.111640	16.203000
8.384647	0.117931	16.249000
8.409804	0.124447	16.295000
8.434840	0.130998	16.342000
8.459646	0.136698	16.387000
8.484828	0.143680	16.433000
8.509149	0.149630	16.480000
8.534015	0.155746	16.526000
8.559186	0.165735	16.572000
8.584298	0.172127	16.619000
8.610001	0.181455	16.664000
8.818772	0.189327	16.712000
8.844368	0.270631	17.097000
8.869444	0.277296	17.143000
8.894691	0.283817	17.190000
8.919520	0.288035	17.236000
8.944020	0.293857	17.282000
8.968836	0.297831	17.328000
8.993408	0.298200	17.375000
9.018789	0.297969	17.421000
9.044028	0.299254	17.467000
9.069704	0.299388	17.514000
9.094840	0.295935	17.560000
9.120084	0.293172	17.606000
9.145164	0.290034	17.652000
9.169890	0.284262	17.698000
9.194383	0.279555	17.744000
9.218594	0.275368	17.789000
9.303489	0.270649	17.836000
9.386172	0.249850	17.991000
9.410542	0.243628	18.144000
9.435448	0.238203	18.190000
9.460903	0.231156	18.237000
9.485824	0.219826	18.283000
9.511185	0.210618	18.329000
9.536889	0.199562	18.376000
9.562234	0.186375	18.422000
9.586978	0.170970	18.469000
9.612169	0.151632	18.514000
9.636560	0.133090	18.561000
9.661370	0.118125	18.607000
9.686143	0.099237	18.653000
9.711603	0.080991	18.700000
9.736928	0.063570	18.745000
9.761542	0.044582	18.791000
9.786947	0.026492	18.838000
9.812264	0.007883	18.884000
9.895710	-0.008798	18.931000
9.980666	-0.088396	19.086000
10.006411	-0.096706	19.244000
10.031953	-0.102808	19.291000
10.056726	-0.108629	19.336000
10.082314	-0.112748	19.383000
10.107463	-0.114541	19.430000
10.132810	-0.118124	19.475000
10.157328	-0.118848	19.521000
10.181727	-0.118539	19.568000
10.207156	-0.116070	19.614000
10.232065	-0.111248	19.661000
10.257749	-0.106886	19.707000
10.282462	-0.100379	19.753000
10.307775	-0.093013	19.800000
10.332781	-0.086127	19.846000
10.358101	-0.077143	19.892000
10.383044	-0.067949	19.939000
10.406922	-0.060248	19.984000
10.491057	-0.048645	20.030000
10.576903	0.017358	20.185000
10.601996	0.024134	20.344000
10.627414	0.027436	20.390000
10.652688	0.022539	20.436000
10.677868	0.014949	20.483000
10.702605	0.002615	20.529000
10.727194	-0.014239	20.575000
10.752029	-0.034252	20.622000
10.777580	-0.060993	20.668000
10.802832	-0.089921	20.714000
10.827744	-0.122591	20.761000
10.853291	-0.161115	20.807000
10.878605	-0.201369	20.853000
10.903911	-0.245314	20.900000
10.928954	-0.287006	20.946000
10.953878	-0.326767	20.992000
10.977858	-0.370352	21.039000
11.003170	-0.411952	21.085000
11.087406	-0.455191	21.131000
11.287837	-0.836850	21.286000
11.313047	-0.860248	21.656000
11.338156	-0.881925	21.702000
11.363717	-0.903567	21.749000
11.388356	-0.922041	21.795000
11.413968	-0.940625	21.841000
11.438804	-0.958520	21.887000
11.463083	-0.974871	21.935000
11.488563	-0.994030	21.981000
11.513306	-1.012268	22.027000
11.538997	-1.033569	22.073000
11.563825	-1.053089	22.119000
11.589053	-1.071901	22.166000
11.797277	-1.090333	22.212000
11.823152	-1.145193	22.597000
11.848070	-1.142661	22.644000
11.873140	-1.141305	22.690000
11.898197	-1.137536	22.737000
11.922323	-1.136550	22.783000
11.947397	-1.135174	22.828000
11.973003	-1.134543	22.875000
11.997916	-1.136785	22.921000
12.022781	-1.139718	22.967000
12.048349	-1.141976	23.013000
12.073515	-1.145904	23.060000
12.098312	-1.148991	23.106000
12.123121	-1.152700	23.152000
12.147705	-1.157444	23.199000
12.172943	-1.163465	23.245000
12.198091	-1.170311	23.291000
12.282541	-1.178023	23.338000
12.364172	-1.233378	23.492000
12.389187	-1.246855	23.644000
12.414581	-1.259139	23.690000
12.439662	-1.273684	23.737000
12.465094	-1.287996	23.783000
12.490379	-1.302499	23.830000
12.515301	-1.316885	23.876000
12.540280	-1.327234	23.922000
12.564767	-1.340510	23.968000
12.590075	-1.355567	24.015000
12.614569	-1.367584	24.061000
12.640492	-1.380413	24.107000
12.665506	-1.391261	24.154000
12.691159	-1.403699	24.201000
12.716253	-1.418001	24.246000
12.741607	-1.432792	24.293000
12.766814	-1.451222	24.339000
12.791568	-1.470229	24.386000
12.874347	-1.491248	24.432000
12.960006	-1.633022	24.586000
12.985068	-1.656283	24.744000
13.010595	-1.679232	24.790000
13.035541	-1.701484	24.836000
13.060470	-1.721582	24.882000
13.084629	-1.743319	24.927000
13.109640	-1.765252	24.974000
13.134332	-1.783981	25.020000
13.159254	-1.803614	25.067000
13.184742	-1.817436	25.113000
13.209879	-1.830005	25.159000
13.235808	-1.842476	25.205000
13.260715	-1.852086	25.251000
13.285549	-1.863144	25.298000
13.309823	-1.872431	25.344000
13.334655	-1.881509	25.390000
13.360605	-1.891580	25.437000
13.385451	-1.899329	25.483000
13.469920	-1.909499	25.529000
13.556177	-1.962492	25.684000
13.581367	-1.966555	25.844000
13.606687	-1.971360	25.889000
13.630743	-1.973702	25.937000
13.655860	-1.974523	25.983000
13.680836	-1.976105	26.029000
13.706270	-1.975088	26.075000
13.730743	-1.973197	26.121000
13.756155	-1.970334	26.168000
13.781627	-1.967066	26.214000
13.806499	-1.963197	26.260000
13.830911	-1.955005	26.306000
13.855422	-1.946552	26.352000
13.880572	-1.936629	26.398000
13.906014	-1.925874	26.444000
13.930831	-1.915874	26.491000
13.956642	-1.902413	26.537000
13.981775	-1.889131	26.584000
14.065817	-1.877866	26.629000
14.266737	-1.800456	26.784000
14.291903	-1.797002	27.156000
14.316246	-1.795689	27.202000
14.340782	-1.792146	27.248000
14.365996	-1.792186	27.294000
14.391285	-1.794983	27.341000
14.416500	-1.797927	27.387000
14.441747	-1.803564	27.433000
14.466941	-1.808516	27.479000
14.491721	-1.814458	27.525000
14.517151	-1.822293	27.572000
14.541548	-1.828125	27.618000
14.566561	-1.838114	27.664000
14.776255	-1.847074	27.711000
14.800709	-1.934517	28.096000
14.826065	-1.945072	28.143000
14.850954	-1.954120	28.189000
14.876077	-1.963889	28.236000
14.901237	-1.977541	28.282000
14.926519	-1.990678	28.329000
14.952067	-2.010406	28.375000
14.977266	-2.034683	28.421000
15.003470	-2.060261	28.468000
15.028113	-2.088972	28.514000
15.052806	-2.116289	28.561000
15.077861	-2.146422	28.606000
15.102635	-2.174351	28.653000
15.127992	-2.198752	28.699000
15.153296	-2.220559	28.746000
15.178360	-2.235210	28.792000
15.262711	-2.247374	28.838000
15.344008	-2.279794	28.994000
15.369021	-2.283467	29.144000
15.394303	-2.287281	29.190000
15.419517	-2.290623	29.237000
15.444064	-2.294327	29.282000
15.469239	-2.299084	29.329000
15.493835	-2.300892	29.376000
15.519169	-2.303102	29.422000
15.543728	-2.306180	29.468000
15.569214	-2.307685	29.514000
15.594787	-2.310758	29.560000
15.619274	-2.313319	29.606000
15.645256	-2.313802	29.653000
15.669791	-2.314955	29.699000
15.694155	-2.316370	29.745000
15.718631	-2.317909	29.790000
15.743951	-2.320348	29.837000
15.769377	-2.321329	29.883000
15.853712	-2.324101	29.930000
15.940122	-2.353263	30.085000
15.965131	-2.362111	30.244000
15.990353	-2.369658	30.291000
16.015023	-2.376944	30.337000
16.039455	-2.380412	30.384000
16.064819	-2.384041	30.430000
16.090529	-2.383941	30.477000
16.115865	-2.383210	30.523000
16.140943	-2.379307	30.569000
16.166293	-2.374072	30.616000
16.191195	-2.367386	30.662000
16.215968	-2.359879	30.707000
16.240846	-2.354339	30.753000
16.265759	-2.349224	30.800000
16.290775	-2.346207	30.847000
16.315757	-2.345151	30.894000
16.341445	-2.344710	30.939000
16.366387	-2.345486	30.986000
16.450252	-2.347718	31.032000
16.535337	-2.360300	31.187000
16.559465	-2.364493	31.344000
16.585431	-2.366615	31.390000
16.610426	-2.369427	31.437000
16.635720	-2.371810	31.483000
16.661240	-2.372965	31.530000
16.686549	-2.377900	31.576000
16.711613	-2.380383	31.621000
16.736690	-2.383005	31.669000
16.761250	-2.387539	31.714000
16.785808	-2.388990	31.761000
16.810543	-2.393119	31.807000
16.835599	-2.395752	31.853000
16.861181	-2.398509	31.899000
16.886607	-2.400375	31.946000
16.911231	-2.401151	31.992000
16.936757	-2.403363	32.038000
16.961896	-2.402738	32.084000
17.044775	-2.399210	32.130000
17.246151	-2.361085	32.286000
17.270895	-2.364197	32.657000
17.295909	-2.364383	32.703000
17.320849	-2.368202	32.749000
17.346487	-2.372030	32.795000
17.371645	-2.375278	32.841000
17.397154	-2.379752	32.888000
17.421964	-2.382174	32.934000
17.446841	-2.383901	32.979000
17.471149	-2.385592	33.026000
17.495819	-2.384266	33.072000
17.521190	-2.381994	33.118000
17.545773	-2.376775	33.165000
17.755214	-2.369177	33.211000
17.780410	-2.221017	33.596000
17.805468	-2.198561	33.642000
17.830553	-2.176308	33.688000
17.855841	-2.155020	33.735000
17.881213	-2.130750	33.782000
17.906373	-2.109034	33.828000
17.931337	-2.086264	33.874000
17.955676	-2.059550	33.921000
17.980518	-2.035032	33.967000
18.005434	-2.008353	34.013000
18.030492	-1.982645	34.058000
18.055726	-1.954935	34.105000
18.081001	-1.927029	34.151000
18.106262	-1.900070	34.198000
18.131227	-1.872448	34.244000
18.156172	-1.847628	34.290000
18.239530	-1.820419	34.337000
18.323003	-1.650362	34.491000
18.347711	-1.619274	34.644000
18.372048	-1.586995	34.690000
18.397588	-1.553269	34.736000
18.422496	-1.519934	34.783000
18.447350	-1.484972	34.829000
18.472371	-1.448478	34.875000
18.497571	-1.410690	34.921000
18.522822	-1.370012	34.967000
18.548366	-1.331405	35.014000
18.573114	-1.289956	35.060000
18.597897	-1.249738	35.106000
18.622509	-1.209361	35.153000
18.647811	-1.167103	35.199000
18.672969	-1.127141	35.245000
18.698276	-1.085679	35.291000
18.723311	-1.043765	35.338000
18.748822	-1.004984	35.384000
18.832481	-0.964967	35.431000
18.917619	-0.754222	35.585000
18.942412	-0.724760	35.744000
18.967295	-0.692095	35.789000
18.993188	-0.663043	35.836000
19.017992	-0.631670	35.882000
19.043338	-0.600556	35.928000
19.068734	-0.571408	35.975000
19.094078	-0.539532	36.021000
19.119061	-0.511188	36.068000
19.142960	-0.484124	36.114000
19.167726	-0.456221	36.160000
19.192908	-0.431654	36.206000
19.218404	-0.408288	36.252000
19.243642	-0.385631	36.299000
19.268974	-0.364857	36.344000
19.293832	-0.342732	36.391000
19.319241	-0.321073	36.437000
19.344902	-0.298352	36.484000
19.427148	-0.274826	36.530000
19.513573	-0.150476	36.685000
19.538915	-0.129218	36.844000
19.563835	-0.109084	36.890000
19.589040	-0.087262	36.936000
19.613998	-0.064061	36.982000
19.639184	-0.043747	37.028000
19.663777	-0.020101	37.074000
19.688754	0.003859	37.121000
19.713693	0.026502	37.167000
19.738587	0.052895	37.214000
19.764119	0.076922	37.259000
19.789121	0.102371	37.306000
19.814663	0.129461	37.352000
19.839390	0.155271	37.398000
19.864928	0.182796	37.445000
19.889473	0.208025	37.491000
19.914679	0.232533	37.537000
19.939467	0.255244	37.584000
20.023190	0.278130	37.631000
20.224295	0.485996	37.785000
20.249330	0.507611	38.156000
20.274938	0.527965	38.202000
20.299819	0.551848	38.248000
20.324710	0.573393	38.294000
20.349921	0.593347	38.341000
20.374161	0.612830	38.387000
20.399040	0.630501	38.433000
20.424117	0.645440	38.479000
20.449749	0.659864	38.525000
20.474543	0.671308	38.572000
20.500183	0.687112	38.618000
20.525542	0.701722	38.665000
20.734486	0.715594	38.711000
20.759682	0.823691	39.097000
20.784807	0.836807	39.143000
20.809680	0.850170	39.190000
20.834388	0.864442	39.235000
20.859044	0.876556	39.281000
20.884117	0.893343	39.328000
20.909196	0.908938	39.375000
20.934652	0.924577	39.421000
20.959627	0.939856	39.468000
20.985637	0.953659	39.514000
21.010624	0.970445	39.561000
21.036077	0.986549	39.607000
21.060872	1.002375	39.653000
21.086106	1.019646	39.700000
21.110334	1.033474	39.746000
21.135051	1.050685	39.792000
21.219975	1.066670	39.838000
21.300818	1.153006	39.994000
21.325386	1.166583	40.143000
21.350509	1.181779	40.190000
21.376185	1.192793	40.236000
21.401725	1.208345	40.283000
21.426733	1.220038	40.329000
21.452178	1.232916	40.376000
21.477517	1.246928	40.422000
21.502399	1.256653	40.469000
21.526879	1.266712	40.515000
21.551139	1.275523	40.561000
21.576627	1.284173	40.607000
21.601326	1.294032	40.653000
21.626910	1.301489	40.700000
21.651568	1.310843	40.745000
21.676749	1.319338	40.791000
21.701266	1.325088	40.836000
21.725112	1.334116	40.882000
21.810320	1.339526	40.928000
21.896403	1.394037	41.085000
21.921891	1.408561	41.244000
21.946916	1.421848	41.290000
21.972185	1.434290	41.336000
21.997008	1.447698	41.382000
22.021774	1.462267	41.427000
22.046613	1.476005	41.474000
22.071236	1.485929	41.520000
22.096400	1.498695	41.567000
22.121603	1.513099	41.614000
22.147072	1.525201	41.660000
22.172295	1.541072	41.706000
22.196680	1.552321	41.751000
22.222481	1.565694	41.798000
22.247445	1.580417	41.845000
22.272499	1.593034	41.891000
22.297038	1.609160	41.938000
22.321900	1.624537	41.983000
22.406352	1.640573	42.030000
22.492480	1.733870	42.185000
22.518283	1.745608	42.344000
22.543494	1.757939	42.390000
22.569074	1.772908	42.437000
22.593404	1.786962	42.483000
22.617613	1.801355	42.529000
22.642941	1.812410	42.575000
22.667864	1.824251	42.621000
22.693591	1.839601	42.668000
22.718829	1.851447	42.714000
22.743554	1.862898	42.760000
22.769069	1.875284	42.806000
22.794461	1.888812	42.853000
22.818938	1.902284	42.899000
22.843604	1.914806	42.946000
22.868497	1.927983	42.992000
22.893518	1.939840	43.037000
22.918747	1.950935	43.084000
23.002731	1.965221	43.130000
23.204175	2.096247	43.285000
23.229254	2.106318	43.655000
23.254642	2.119834	43.703000
23.279863	2.133097	43.750000
23.304541	2.145529	43.796000
23.329322	2.158129	43.842000
23.354293	2.168328	43.888000
23.379570	2.178939	43.935000
23.404014	2.188949	43.981000
23.429704	2.197907	44.027000
23.454885	2.206500	44.073000
23.479735	2.215458	44.120000
23.505033	2.225157	44.166000
23.713491	2.236738	44.212000
23.739078	2.312044	44.597000
23.763458	2.320967	44.644000
23.788012	2.326798	44.690000
23.813201	2.333074	44.736000
23.838164	2.342422	44.782000
23.863946	2.349970	44.828000
23.889052	2.358827	44.875000
23.914140	2.367040	44.922000
23.939380	2.374487	44.968000
23.964544	2.381465	45.014000
23.988741	2.386133	45.060000
24.013082	2.391968	45.106000
24.038389	2.398917	45.152000
24.063295	2.403655	45.197000
24.088864	2.411915	45.244000
24.113829	2.416903	45.290000
24.198282	2.424360	45.337000
24.279869	2.455421	45.491000
24.304708	2.460643	45.643000
24.330174	2.467125	45.690000
24.355399	2.475156	45.736000
24.380676	2.480976	45.782000
24.405442	2.487173	45.829000
24.430092	2.491911	45.875000
24.455061	2.497957	45.921000
24.480084	2.505922	45.967000
24.506114	2.510311	46.015000
24.531174	2.518850	46.061000
24.556389	2.525796	46.107000
24.581736	2.529935	46.154000
24.607176	2.536851	46.200000
24.632582	2.542602	46.247000
24.656787	2.549969	46.293000
24.681520	2.556825	46.339000
24.705997	2.561872	46.385000
24.790402	2.568879	46.431000
24.876168	2.592617	46.586000
24.901499	2.595839	46.744000
24.926570	2.600650	46.790000
24.951658	2.602902	46.837000
24.976274	2.606030	46.883000
25.000673	2.607496	46.929000
25.025879	2.607967	46.976000
25.050846	2.610009	47.022000
25.076234	2.609798	47.068000
25.101666	2.610540	47.114000
25.126730	2.611725	47.160000
25.151907	2.610329	47.206000
25.177091	2.612070	47.253000
25.201415	2.611295	47.299000
25.225977	2.613617	47.345000
25.250925	2.616199	47.391000
25.276332	2.615809	47.437000
25.301707	2.618622	47.483000
25.385599	2.620453	47.530000
25.471686	2.631268	47.685000
25.497157	2.634376	47.844000
25.521293	2.635432	47.891000
25.546950	2.635197	47.937000
25.572218	2.639160	47.984000
25.597445	2.638635	48.030000
25.622741	2.642204	48.077000
25.647824	2.643925	48.123000
25.673519	2.645957	48.169000
25.698358	2.648619	48.216000
25.723604	2.650587	48.262000
25.748446	2.655241	48.308000
25.772847	2.658038	48.355000
25.797949	2.661051	48.401000
25.823312	2.665365	48.448000
25.848898	2.667767	48.495000
25.873423	2.670520	48.540000
25.898894	2.671426	48.587000
25.983107	2.672221	48.633000
26.182504	2.692696	48.788000
26.207967	2.695357	49.156000
26.232675	2.696573	49.203000
26.257742	2.699371	49.250000
26.282389	2.702515	49.296000
26.308263	2.705077	49.343000
26.333190	2.709427	49.389000
26.358397	2.710592	49.435000
26.383858	2.712134	49.481000
26.409064	2.715176	49.528000
26.434210	2.716888	49.574000
26.459366	2.720071	49.621000
26.484323	2.720907	49.668000
26.691606	2.721722	49.714000
26.716631	2.727963	50.097000
26.741831	2.727208	50.144000
26.767107	2.728243	50.190000
26.792480	2.726367	50.237000
26.817605	2.725521	50.283000
26.842845	2.725010	50.329000
26.868081	2.721853	50.375000
26.892978	2.719350	50.421000
26.917647	2.715296	50.468000
26.942296	2.711558	50.514000
26.967609	2.709356	50.561000
26.992870	2.705538	50.608000
27.018012	2.703966	50.654000
27.043589	2.701008	50.700000
27.068621	2.694607	50.747000
27.094163	2.691629	50.793000
27.176891	2.684653	50.839000
27.259014	2.660921	50.994000
27.284502	2.657182	51.145000
27.309659	2.655515	51.191000
27.334573	2.654780	51.237000
27.359062	2.652568	51.284000
27.383538	2.648103	51.330000
27.409041	2.649655	51.376000
27.434026	2.648609	51.422000
27.459346	2.648468	51.468000
27.484957	2.647743	51.514000
27.509815	2.648014	51.561000
27.535349	2.648094	51.607000
27.560614	2.649329	51.654000
27.585416	2.649956	51.700000
27.610142	2.652943	51.747000
27.635052	2.651756	51.793000
27.660152	2.654750	51.839000
27.685568	2.656672	51.885000
27.769781	2.656852	51.931000
27.854689	2.655180	52.087000
27.879681	2.652217	52.244000
27.904172	2.651081	52.291000
27.929121	2.648960	52.337000
27.954484	2.645331	52.384000
27.980264	2.643554	52.430000
28.005194	2.641212	52.476000
28.030536	2.640777	52.522000
28.055135	2.640767	52.569000
28.081034	2.640146	52.615000
28.105702	2.638819	52.661000
28.130629	2.637734	52.708000
28.155331	2.634286	52.754000
28.180396	2.634356	52.801000
28.205834	2.631338	52.847000
28.231048	2.628925	52.894000
28.256459	2.626474	52.940000
28.281787	2.623075	52.987000
28.365184	2.620933	53.033000
28.449811	2.618431	53.187000
28.475068	2.618722	53.344000
28.500409	2.620293	53.391000
28.526263	2.618816	53.437000
28.551231	2.616954	53.483000
28.576196	2.615438	53.530000
28.601640	2.611645	53.576000
28.626269	2.609438	53.623000
28.651271	2.604498	53.668000
28.675733	2.601595	53.715000
28.700491	2.595858	53.760000
28.725753	2.586313	53.807000
28.751166	2.577089	53.854000
28.776684	2.569562	53.901000
28.801942	2.561371	53.947000
28.826934	2.552368	53.993000
28.852163	2.544167	54.038000
28.877297	2.536217	54.086000
28.960494	2.526381	54.132000
29.160189	2.410690	54.287000
29.185711	2.401586	54.657000
29.210679	2.394930	54.702000
29.236017	2.384670	54.749000
29.261280	2.378315	54.795000
29.286751	2.371824	54.841000
29.312294	2.365178	54.888000
29.337390	2.360123	54.935000
29.361935	2.355084	54.981000
29.386184	2.353067	55.027000
29.411325	2.350309	55.073000
29.436807	2.348602	55.120000
29.461496	2.348281	55.166000
29.670268	2.348752	55.211000
29.695422	2.382974	55.597000
29.721250	2.390784	55.643000
29.745891	2.396145	55.689000
29.770541	2.403825	55.735000
29.795670	2.408933	55.782000
29.819710	2.411439	55.827000
29.844623	2.414694	55.874000
29.869771	2.415798	55.920000
29.895384	2.419462	55.967000
29.920695	2.421430	56.013000
29.945715	2.421850	56.059000
29.970576	2.422339	56.105000
29.995763	2.420426	56.151000
30.020728	2.421174	56.197000
30.044850	2.420576	56.244000
30.070114	2.416933	56.290000
30.154372	2.413299	56.337000
30.236941	2.378515	56.491000
30.261777	2.368496	56.644000
30.286461	2.362606	56.690000
30.311541	2.355249	56.737000
30.337012	2.348763	56.783000
30.362104	2.342652	56.829000
30.387596	2.337262	56.875000
30.412640	2.334770	56.922000
30.438032	2.332779	56.969000
30.462585	2.332108	57.014000
30.487767	2.333073	57.060000
30.511811	2.333764	57.106000
30.537331	2.337193	57.153000
30.562122	2.340921	57.199000
30.587608	2.345475	57.245000
30.612911	2.350139	57.292000
30.638007	2.356270	57.338000
30.663751	2.363382	57.385000
30.746736	2.370778	57.431000
30.832126	2.413829	57.586000
30.857407	2.423243	57.744000
30.882860	2.431165	57.790000
30.907706	2.440269	57.836000
30.933012	2.449509	57.883000
30.958306	2.456446	57.928000
30.983346	2.465271	57.975000
31.007776	2.472488	58.021000
31.032516	2.477979	58.067000
31.057524	2.487819	58.114000
31.082449	2.496913	58.160000
31.107111	2.506758	58.205000
31.132457	2.514204	58.251000
31.158193	2.520740	58.297000
31.183003	2.530076	58.343000
31.207997	2.538486	58.390000
31.232790	2.549709	58.436000
31.257544	2.559993	58.483000
31.341758	2.569863	58.529000
31.428800	2.636897	58.685000
31.453214	2.647362	58.844000
31.479137	2.658418	58.890000
31.503804	2.670159	58.937000
31.528804	2.681589	58.982000
31.553883	2.693761	59.029000
31.578347	2.705537	59.076000
31.603284	2.715076	59.122000
31.628589	2.727322	59.168000
31.653981	2.736811	59.214000
31.678578	2.747001	59.260000
31.703999	2.756150	59.306000
31.728972	2.763621	59.352000
31.753753	2.772285	59.398000
31.778753	2.778755	59.444000
31.803252	2.787434	59.491000
31.828597	2.794771	59.537000
31.853599	2.802247	59.582000
31.938110	2.811440	59.629000
32.139011	2.888648	59.784000
32.164109	2.894124	60.156000
32.189580	2.901190	60.202000
32.214975	2.909676	60.249000
32.240415	2.915199	60.295000
32.265006	2.922634	60.341000
32.289432	2.927957	60.388000
32.314319	2.933508	60.434000
32.339785	2.940774	60.481000
32.365045	2.946426	60.527000
32.389862	2.953126	60.573000
32.415617	2.957854	60.620000
32.441053	2.962273	60.667000
32.649237	2.965305	60.712000
32.674915	2.982046	61.097000
32.700259	2.983620	61.144000
32.724800	2.984234	61.191000
32.749394	2.983649	61.236000
32.774227	2.986073	61.283000
32.799544	2.987567	61.330000
32.824750	2.989606	61.376000
32.849279	2.991020	61.422000
32.874208	2.989786	61.468000
32.899771	2.990675	61.514000
32.924911	2.989856	61.560000
32.949879	2.989002	61.606000
32.974032	2.989481	61.652000
32.999164	2.986754	61.699000
33.024408	2.986332	61.745000
33.049130	2.986273	61.791000
33.133790	2.983854	61.838000
33.215296	2.966810	61.993000
33.240333	2.965445	62.144000
33.265611	2.963525	62.190000
33.291301	2.962826	62.237000
33.315919	2.961127	62.282000
33.341374	2.960152	62.329000
33.366787	2.959513	62.376000
33.391378	2.956764	62.421000
33.416453	2.957384	62.469000
33.441028	2.957195	62.515000
33.466111	2.957044	62.561000
33.491808	2.957195	62.607000
33.516733	2.956904	62.654000
33.542296	2.956734	62.700000
33.567168	2.957114	62.747000
33.592719	2.958308	62.794000
33.618336	2.959173	62.839000
33.643215	2.959263	62.886000
33.725877	2.960567	62.932000
33.811720	2.969497	63.087000
33.836442	2.971487	63.244000
33.861582	2.974870	63.290000
33.887426	2.975339	63.336000
33.911701	2.978972	63.383000
33.937026	2.982900	63.429000
33.961302	2.983499	63.476000
33.986442	2.986313	63.521000
34.012101	2.987898	63.567000
34.036761	2.989886	63.615000
34.062654	2.993700	63.661000
34.087618	2.998337	63.708000
34.113027	3.003453	63.754000
34.138517	3.008405	63.801000
34.163408	3.014598	63.847000
34.187837	3.020639	63.893000
34.211906	3.025117	63.939000
34.237787	3.033059	63.985000
34.322171	3.039359	64.032000
34.407734	3.050185	64.187000
34.433131	3.051521	64.345000
34.457780	3.050740	64.390000
34.481991	3.049099	64.437000
34.506462	3.045902	64.483000
34.532333	3.036977	64.529000
34.557246	3.029711	64.575000
34.582847	3.021233	64.621000
34.607799	3.015602	64.667000
34.633224	3.009970	64.714000
34.658637	3.000896	64.760000
34.683551	2.993599	64.807000
34.708829	2.986613	64.854000
34.733032	2.976633	64.900000
34.757585	2.968024	64.946000
34.782806	2.958399	64.991000
34.808403	2.946646	65.038000
34.833470	2.934942	65.085000
34.917781	2.922214	65.131000
35.118277	2.839914	65.286000
35.143087	2.837127	65.657000
35.168115	2.833834	65.703000
35.192307	2.832997	65.748000
35.217213	2.832660	65.795000
35.242284	2.831843	65.841000
35.267862	2.832088	65.887000
35.293387	2.831345	65.933000
35.318335	2.831703	65.980000
35.343844	2.833183	66.027000
35.369184	2.833734	66.073000
35.393863	2.837137	66.119000
35.417966	2.839335	66.165000
35.627790	2.842908	66.212000
35.652215	2.895763	66.597000
35.677014	2.901795	66.644000
35.702016	2.909092	66.689000
35.727264	2.916876	66.736000
35.752673	2.925246	66.782000
35.777529	2.936615	66.828000
35.802496	2.944237	66.874000
35.828132	2.950617	66.920000
35.853138	2.957425	66.967000
35.877779	2.960317	67.013000
35.901678	2.966539	67.059000
35.927114	2.971126	67.105000
35.952554	2.975724	67.151000
35.977445	2.981786	67.197000
36.002516	2.983439	67.243000
36.027633	2.986573	67.290000
36.110657	2.989785	67.336000
36.194291	3.007221	67.491000
36.220004	3.012319	67.645000
36.244887	3.019014	67.691000
36.270165	3.027899	67.737000
36.295394	3.036497	67.783000
36.319562	3.043228	67.829000
36.344649	3.050840	67.875000
36.369485	3.058427	67.921000
36.395413	3.064854	67.969000
36.420538	3.073012	68.015000
36.445859	3.077655	68.062000
36.471230	3.084182	68.108000
36.496635	3.088766	68.154000
36.521829	3.091349	68.201000
36.545751	3.092805	68.247000
36.569801	3.093891	68.293000
36.594987	3.094231	68.338000
36.619701	3.094936	68.384000
36.704211	3.094596	68.431000
36.790558	3.101218	68.585000
36.816294	3.102193	68.745000
36.841203	3.102254	68.791000
36.866017	3.105912	68.838000
36.890308	3.107704	68.884000
36.915118	3.109340	68.929000
36.940908	3.115836	68.975000
36.965810	3.118819	69.021000
36.990236	3.125215	69.067000
37.014903	3.131456	69.113000
37.040639	3.136075	69.159000
37.064999	3.142085	69.205000
37.089268	3.145894	69.251000
37.114953	3.151385	69.297000
37.139406	3.156199	69.343000
37.164850	3.159001	69.390000
37.190539	3.163646	69.436000
37.215599	3.167125	69.482000
37.300336	3.168996	69.528000
37.386295	3.176848	69.685000
37.411350	3.178094	69.845000
37.435569	3.179581	69.891000
37.460759	3.182979	69.937000
37.485634	3.184786	69.983000
37.512031	3.186928	70.029000
37.537497	3.187129	70.076000
37.562303	3.188334	70.122000
37.587732	3.189946	70.168000
37.612526	3.187373	70.214000
37.637375	3.187323	70.261000
37.662050	3.188499	70.307000
37.687709	3.189510	70.354000
37.712204	3.190327	70.400000
37.737548	3.188234	70.447000
37.763207	3.185481	70.492000
37.788531	3.182363	70.539000
37.813130	3.178044	70.585000
37.896395	3.174667	70.632000
38.096722	3.132828	70.786000
38.121989	3.128208	71.157000
38.146945	3.126400	71.203000
38.172159	3.122437	71.249000
38.196876	3.115836	71.296000
38.223011	3.111372	71.342000
38.247449	3.103389	71.387000
38.273085	3.096263	71.434000
38.298432	3.089417	71.480000
38.322908	3.083095	71.527000
38.347084	3.079066	71.573000
38.372063	3.072350	71.619000
38.397672	3.067305	71.665000
38.606086	3.060219	71.711000
38.631814	2.993829	72.098000
38.657100	2.987032	72.144000
38.682336	2.980641	72.190000
38.706962	2.975693	72.236000
38.732206	2.974104	72.282000
38.757922	2.970701	72.328000
38.781722	2.970766	72.374000
38.806389	2.970621	72.420000
38.831737	2.970541	72.466000
38.856393	2.974699	72.512000
38.881918	2.976254	72.559000
38.907112	2.977478	72.605000
38.932863	2.979936	72.652000
38.957258	2.976663	72.698000
38.982667	2.972890	72.744000
39.007650	2.969691	72.790000
39.091204	2.965254	72.837000
39.174162	2.932213	72.992000
39.199241	2.925287	73.145000
39.225587	2.919105	73.191000
39.249421	2.913193	73.238000
39.273728	2.905038	73.285000
39.299717	2.897646	73.331000
39.324343	2.888392	73.376000
39.348995	2.878007	73.422000
39.374596	2.868633	73.468000
39.400482	2.860623	73.515000
39.424988	2.852781	73.561000
39.450213	2.843961	73.608000
39.475641	2.836805	73.654000
39.499883	2.831887	73.701000
39.524854	2.825072	73.747000
39.550014	2.821135	73.794000
39.575864	2.815302	73.840000
39.600467	2.808849	73.886000
39.685454	2.803093	73.933000
39.770279	2.769397	74.087000
39.794755	2.760223	74.245000
39.819311	2.756139	74.291000
39.844628	2.748572	74.337000
39.870410	2.741776	74.383000
39.895815	2.733704	74.431000
39.920713	2.723804	74.476000
39.945838	2.717458	74.523000
39.971436	2.711277	74.569000
39.995631	2.705297	74.615000
40.020787	2.697689	74.661000
40.046422	2.687880	74.709000
40.070748	2.681143	74.755000
40.096215	2.671880	74.802000
40.121801	2.664528	74.847000
40.146780	2.657341	74.893000
40.171720	2.649339	74.941000
40.197437	2.642438	74.986000
40.280645	2.635962	75.033000
40.365343	2.589100	75.188000
40.390603	2.579437	75.345000
40.415628	2.570230	75.391000
40.441298	2.559976	75.438000
40.466077	2.550557	75.484000
40.490956	2.539389	75.530000
40.516216	2.529944	75.576000
40.540242	2.518501	75.622000
40.565017	2.507106	75.668000
40.590565	2.498665	75.715000
40.615421	2.488441	75.760000
40.640430	2.481411	75.805000
40.665463	2.474180	75.852000
40.691410	2.463966	75.898000
40.716723	2.456274	75.945000
40.741629	2.445645	75.992000
40.766389	2.435511	76.038000
40.790354	2.427451	76.085000
40.875191	2.419131	76.131000
41.075237	2.346820	76.285000
41.100900	2.344902	76.657000
41.126616	2.341009	76.704000
41.151618	2.336065	76.750000
41.177158	2.334088	76.796000
41.202064	2.329493	76.843000
41.227892	2.328627	76.889000
41.252644	2.322918	76.936000
41.277377	2.318739	76.982000
41.302364	2.315150	77.029000
41.327132	2.311146	77.075000
41.352725	2.308173	77.121000
41.377965	2.305406	77.167000
41.585807	2.301032	77.214000
41.610463	2.290248	77.596000
41.635811	2.289637	77.644000
41.661650	2.289637	77.690000
41.686141	2.289797	77.735000
41.710213	2.287895	77.782000
41.735142	2.288561	77.829000
41.760721	2.288550	77.875000
41.785396	2.288700	77.921000
41.810333	2.289947	77.967000
41.836268	2.287605	78.014000
41.861262	2.287324	78.060000
41.886368	2.286779	78.106000
41.911996	2.283596	78.152000
41.936311	2.282560	78.199000
41.960195	2.280308	78.245000
41.986153	2.278902	78.291000
42.070348	2.277475	78.338000
42.152738	2.271555	78.493000
42.177187	2.271659	78.644000
42.202385	2.272180	78.691000
42.227905	2.269242	78.737000
42.252815	2.268371	78.784000
42.278270	2.268076	78.830000
42.303826	2.266139	78.876000
42.329696	2.265624	78.923000
42.354014	2.266429	78.970000
42.379346	2.268531	79.016000
42.403987	2.270378	79.062000
42.428555	2.270348	79.109000
42.454417	2.274201	79.155000
42.479861	2.273917	79.202000
42.504905	2.277285	79.249000
42.529324	2.278045	79.295000
42.555205	2.280058	79.341000
42.580572	2.284952	79.387000
42.663788	2.288250	79.433000
42.747465	2.309650	79.588000
42.773558	2.315240	79.745000
42.799020	2.318624	79.791000
42.823707	2.324969	79.838000
42.849316	2.329078	79.884000
42.874411	2.332822	79.930000
42.899366	2.337797	79.976000
42.923108	2.341786	80.022000
42.948491	2.348661	80.069000
42.973204	2.354762	80.114000
42.998245	2.360122	80.161000
43.024054	2.365763	80.207000
43.049394	2.370387	80.253000
43.073677	2.377149	80.299000
43.099340	2.384207	80.346000
43.124715	2.390242	80.392000
43.149532	2.396172	80.438000
43.173466	2.402299	80.485000
43.257857	2.410173	80.530000
43.344208	2.464769	80.686000
43.369586	2.474585	80.845000
43.394561	2.484522	80.891000
43.419502	2.494413	80.937000
43.445556	2.499829	80.984000
43.469940	2.508535	81.030000
43.495049	2.513793	81.077000
43.520117	2.518481	81.123000
43.544980	2.524530	81.170000
43.569786	2.528023	81.216000
43.595384	2.533016	81.261000
43.621058	2.536729	81.308000
43.645522	2.540303	81.355000
43.670978	2.546244	81.401000
43.696414	2.551022	81.448000
43.720401	2.556703	81.494000
43.745269	2.562705	81.540000
43.770782	2.567153	81.587000
43.854681	2.575118	81.633000
44.055108	2.660489	81.787000
44.079634	2.667204	82.156000
44.105327	2.673956	82.203000
44.130406	2.680142	82.249000
44.155423	2.687738	82.296000
44.179123	2.695246	82.342000
44.205024	2.699500	82.388000
44.229953	2.701211	82.434000
44.255316	2.704945	82.481000
44.280372	2.710560	82.528000
44.305958	2.719609	82.574000
44.331217	2.728527	82.620000
44.355892	2.738046	82.666000
44.564122	2.751654	82.713000
44.589811	2.850452	83.097000
44.614337	2.864174	83.144000
44.639420	2.878347	83.190000
44.664149	2.890984	83.237000
44.689274	2.904782	83.282000
44.714253	2.915671	83.329000
44.739950	2.927635	83.375000
44.764729	2.939668	83.422000
44.789412	2.952086	83.466000
44.814679	2.965494	83.514000
44.839973	2.978332	83.560000
44.864295	2.990829	83.606000
44.889512	3.006975	83.653000
44.915263	3.019113	83.699000
44.939631	3.032272	83.745000
44.965037	3.045079	83.792000
45.050139	3.058757	83.838000
45.131821	3.141925	83.993000
45.157434	3.158411	84.144000
45.182071	3.172754	84.191000
45.207769	3.187452	84.238000
45.233239	3.201496	84.284000
45.258237	3.214243	84.330000
45.283285	3.230929	84.376000
45.308656	3.245807	84.424000
45.332483	3.262296	84.470000
45.357120	3.276139	84.516000
45.382898	3.291865	84.562000
45.408391	3.305628	84.608000
45.433132	3.317931	84.654000
45.458799	3.333662	84.701000
45.484116	3.348448	84.747000
45.508933	3.362816	84.794000
45.533589	3.378483	84.840000
45.558534	3.390507	84.886000
45.642145	3.404897	84.932000
45.727712	3.477940	85.087000
45.753090	3.488645	85.244000
45.778246	3.500887	85.291000
45.802883	3.512007	85.337000
45.827147	3.524589	85.383000
45.852560	3.538041	85.429000
45.877950	3.546834	85.476000
45.902856	3.559036	85.521000
45.927778	3.569851	85.568000
45.953129	3.580616	85.615000
45.978654	3.589785	85.661000
46.002776	3.596116	85.706000
46.028719	3.605104	85.753000
46.052042	3.613897	85.798000
46.076921	3.621475	85.844000
46.102603	3.630864	85.890000
46.127797	3.639211	85.937000
46.152561	3.647794	85.982000
46.237471	3.657634	86.030000
46.323664	3.701091	86.185000
46.349196	3.709111	86.345000
46.374267	3.717743	86.391000
46.398151	3.723943	86.438000
46.424221	3.732478	86.484000
46.449096	3.739270	86.531000
46.473514	3.745977	86.577000
46.499361	3.750974	86.623000
46.524821	3.756665	86.670000
46.550376	3.764136	86.716000
46.575255	3.769148	86.762000
46.600011	3.776605	86.808000
46.624402	3.784964	86.854000
46.648536	3.790866	86.901000
46.674686	3.797673	86.946000
46.699792	3.801465	86.993000
46.724675	3.804499	87.039000
46.749734	3.807872	87.085000
46.834003	3.811235	87.132000
47.034368	3.867543	87.287000
47.059820	3.875823	87.657000
47.083596	3.881558	87.703000
47.108790	3.888139	87.749000
47.134622	3.893114	87.795000
47.158975	3.898674	87.842000
47.184726	3.904434	87.888000
47.210250	3.908718	87.934000
47.235121	3.913813	87.981000
47.260235	3.919754	88.027000
47.285271	3.924088	88.074000
47.311103	3.926990	88.120000
47.334469	3.929733	88.166000
47.542821	3.934327	88.212000
47.567996	3.996616	88.598000
47.593393	4.005119	88.644000
47.618937	4.014057	88.690000
47.644116	4.022249	88.737000
47.669844	4.030952	88.784000
47.694873	4.039146	88.830000
47.720209	4.047783	88.877000
47.746098	4.057712	88.924000
47.770270	4.065154	88.970000
47.794181	4.070359	89.015000
47.819229	4.076370	89.061000
47.844946	4.081255	89.107000
47.869567	4.088241	89.154000
47.894923	4.094133	89.201000
47.920209	4.100136	89.246000
47.945065	4.108427	89.293000
48.029230	4.116597	89.338000
48.110459	4.166905	89.493000
48.136007	4.174371	89.644000
48.161308	4.181786	89.690000
48.186268	4.190007	89.737000
48.211347	4.197853	89.783000
48.235588	4.203514	89.830000
48.260506	4.211755	89.876000
48.286364	4.217316	89.922000
48.311643	4.222183	89.968000
48.336145	4.228566	90.015000
48.361712	4.232168	90.061000
48.387033	4.239374	90.108000
48.412484	4.244586	90.154000
48.437321	4.250058	90.201000
48.461639	4.256080	90.247000
48.486799	4.261941	90.293000
48.510690	4.269747	90.338000
48.536826	4.275030	90.385000
48.620898	4.279957	90.431000
48.706999	4.314638	90.586000
48.731597	4.321865	90.745000
48.755650	4.331585	90.790000
48.781206	4.339877	90.837000
48.805324	4.348070	90.882000
48.830914	4.359186	90.929000
48.856869	4.366447	90.976000
48.881920	4.374215	91.022000
48.906945	4.382973	91.068000
48.932405	4.391405	91.115000
48.958194	4.401435	91.162000
48.982428	4.410393	91.208000
49.006746	4.420834	91.254000
49.031940	4.430522	91.300000
49.057076	4.439185	91.347000
49.082797	4.448655	91.393000
49.107802	4.457078	91.438000
49.133819	4.465676	91.486000
49.216020	4.474248	91.532000
49.301568	4.504616	91.686000
49.326962	4.509051	91.844000
49.351921	4.513010	91.891000
49.376693	4.516866	91.937000
49.402098	4.520869	91.983000
49.428007	4.524513	92.030000
49.452782	4.528972	92.076000
49.477588	4.531459	92.122000
49.502306	4.534043	92.168000
49.527588	4.535657	92.214000
49.551837	4.537456	92.261000
49.577335	4.540005	92.307000
49.602951	4.542762	92.353000
49.627581	4.546116	92.400000
49.653339	4.551023	92.445000
49.679067	4.554786	92.492000
49.703747	4.558229	92.539000
49.727915	4.560289	92.584000
49.811803	4.563301	92.631000
50.012015	4.593261	92.786000
50.037823	4.595559	93.157000
50.063183	4.596384	93.204000
50.087654	4.598812	93.250000
50.113286	4.598019	93.296000
50.138845	4.596423	93.341000
50.163175	4.595469	93.388000
50.188919	4.593840	93.435000
50.214028	4.591092	93.481000
50.238292	4.590342	93.528000
50.262564	4.590017	93.573000
50.288143	4.588443	93.619000
50.313210	4.590067	93.665000
50.521274	4.593161	93.711000
50.547148	4.620735	94.097000
50.572646	4.625423	94.144000
50.598116	4.627702	94.190000
50.623007	4.630686	94.237000
50.648155	4.632030	94.283000
50.673629	4.631930	94.329000
50.698093	4.631274	94.376000
50.722850	4.629361	94.422000
50.747875	4.626718	94.468000
50.773076	4.624503	94.515000
50.798351	4.622335	94.561000
50.823714	4.619451	94.606000
50.849100	4.616248	94.653000
50.873572	4.612806	94.700000
50.899058	4.607194	94.746000
50.924125	4.602576	94.792000
51.007333	4.595440	94.838000
51.089715	4.566965	94.994000
51.114360	4.561313	95.145000
51.139343	4.552932	95.191000
51.163722	4.545836	95.237000
51.188843	4.536832	95.283000
51.214660	4.529806	95.329000
51.239873	4.521744	95.376000
51.264622	4.514547	95.422000
51.290446	4.504042	95.468000
51.315866	4.494493	95.515000
51.339704	4.484713	95.561000
51.364860	4.478743	95.608000
51.390042	4.471466	95.654000
51.415190	4.464759	95.699000
51.439954	4.458560	95.746000
51.465836	4.453924	95.793000
51.490857	4.448425	95.838000
51.515725	4.443149	95.885000
51.598967	4.437409	95.931000
51.684234	4.400744	96.086000
51.709774	4.391121	96.244000
51.734476	4.381807	96.290000
51.759966	4.368860	96.337000
51.785268	4.355538	96.382000
51.810585	4.342089	96.429000
51.835441	4.327996	96.475000
51.860812	4.311171	96.521000
51.885272	4.296008	96.568000
51.909844	4.276023	96.614000
51.935038	4.258308	96.661000
51.960885	4.242308	96.707000
51.985695	4.227965	96.754000
52.011196	4.212075	96.800000
52.036367	4.198406	96.846000
52.061838	4.184379	96.892000
52.086367	4.171127	96.938000
52.111454	4.158574	96.985000
52.194550	4.145071	97.031000
52.280943	4.077546	97.186000
52.305922	4.070580	97.345000
52.331112	4.065304	97.391000
52.357075	4.060850	97.438000
52.381435	4.057652	97.484000
52.406544	4.053934	97.530000
52.430836	4.050165	97.576000
52.455004	4.050195	97.622000
52.480959	4.049440	97.668000
52.506222	4.051016	97.715000
52.532046	4.052538	97.760000
52.557309	4.055310	97.807000
52.582503	4.060145	97.854000
52.607913	4.064729	97.900000
52.633011	4.071515	97.946000
52.657770	4.077726	97.994000
52.682688	4.080814	98.040000
52.707521	4.084943	98.086000
52.791659	4.088171	98.133000
52.991056	4.129205	98.287000
53.016811	4.135057	98.657000
53.042132	4.140234	98.703000
53.067291	4.147419	98.749000
53.092166	4.155091	98.795000
53.117429	4.163920	98.842000
53.142209	4.169971	98.888000
53.166780	4.177273	98.934000
53.191751	4.185633	98.980000
53.216911	4.191825	99.026000
53.242166	4.199540	99.072000
53.267603	4.207920	99.119000
53.292927	4.213059	99.166000
53.501675	4.219470	99.212000
53.526447	4.228949	99.597000
53.551107	4.225907	99.643000
53.575913	4.223027	99.688000
53.600369	4.218941	99.734000
53.624899	4.214333	99.781000
53.650965	4.208061	99.827000
53.675763	4.201574	99.873000
53.700665	4.197971	99.920000
53.726190	4.194349	99.966000
53.751729	4.189156	100.012000
53.776704	4.185389	100.059000
53.801418	4.181176	100.105000
53.826774	4.177363	100.151000
53.850781	4.174894	100.198000
53.876117	4.173305	100.244000
53.901891	4.167653	100.290000
53.985514	4.160597	100.336000
54.067980	4.104379	100.492000
54.092713	4.098892	100.645000
54.118922	4.094383	100.691000
54.143901	4.091704	100.737000
54.168745	4.086540	100.784000
54.193674	4.081900	100.830000
54.219859	4.079737	100.876000
54.244227	4.078371	100.922000
54.268138	4.081929	100.969000
54.293367	4.085143	101.014000
54.318684	4.087695	101.060000
54.343259	4.093933	101.106000
54.368807	4.098557	101.152000
54.394070	4.103629	101.199000
54.418550	4.108625	101.244000
54.443978	4.114447	101.291000
54.468761	4.121295	101.337000
54.492395	4.129335	101.382000
54.577878	4.140493	101.428000
54.664013	4.202788	101.585000
54.689753	4.214682	101.744000
54.714889	4.224076	101.791000
54.739826	4.234127	101.838000
54.765742	4.243652	101.885000
54.791005	4.253167	101.931000
54.815300	4.263784	101.977000
54.839549	4.276193	102.024000
54.865419	4.287461	102.070000
54.889914	4.299500	102.116000
54.915047	4.312587	102.162000
54.940967	4.325253	102.209000
54.965750	4.337044	102.254000
54.991109	4.348040	102.302000
55.016764	4.358364	102.348000
55.041701	4.367548	102.395000
55.065842	4.374760	102.440000
55.089968	4.381020	102.486000
55.174406	4.387616	102.533000
55.260503	4.416259	102.687000
55.286023	4.423375	102.845000
55.310069	4.430743	102.891000
55.335382	4.438289	102.937000
55.360791	4.447823	102.984000
55.385420	4.456857	103.031000
55.410407	4.467897	103.077000
55.435736	4.476890	103.123000
55.460780	4.485388	103.169000
55.485682	4.493136	103.216000
55.511529	4.500272	103.262000
55.536911	4.509221	103.309000
55.561836	4.515077	103.355000
55.587384	4.522237	103.402000
55.612017	4.528118	103.448000
55.636377	4.534847	103.494000
55.661399	4.541019	103.540000
55.686846	4.548045	103.586000
55.771076	4.552492	103.633000
55.970934	4.607781	103.788000
55.995660	4.613533	104.157000
56.020808	4.620185	104.202000
56.045687	4.629015	104.249000
56.069943	4.635372	104.295000
56.094803	4.642738	104.342000
56.120789	4.649294	104.388000
56.145879	4.655355	104.434000
56.170819	4.661836	104.480000
56.195902	4.666514	104.527000
56.221684	4.671151	104.572000
56.246133	4.676983	104.619000
56.270597	4.680751	104.665000
56.480255	4.686974	104.711000
56.505545	4.738341	105.098000
56.529913	4.744952	105.144000
56.555061	4.751488	105.191000
56.580739	4.757108	105.237000
56.605142	4.764041	105.283000
56.630355	4.771973	105.330000
56.655492	4.776516	105.375000
56.680832	4.781836	105.422000
56.705976	4.786326	105.468000
56.730636	4.792701	105.514000
56.755872	4.796160	105.560000
56.780275	4.800259	105.607000
56.805596	4.803958	105.654000
56.831278	4.809066	105.699000
56.855565	4.811840	105.746000
56.881293	4.816694	105.792000
56.964620	4.822574	105.838000
57.047022	4.857107	105.993000
57.072381	4.863513	106.145000
57.097586	4.869543	106.191000
57.123107	4.875934	106.238000
57.148067	4.883686	106.283000
57.172485	4.889847	106.331000
57.197571	4.894421	106.377000
57.222831	4.900712	106.423000
57.247214	4.907069	106.470000
57.272431	4.912103	106.516000
57.298355	4.917713	106.563000
57.323176	4.924769	106.608000
57.348340	4.931235	106.655000
57.373960	4.937251	106.700000
57.398885	4.943233	106.747000
57.422485	4.948944	106.793000
57.447387	4.954667	106.839000
57.472781	4.958849	106.885000
57.556930	4.965820	106.931000
57.643473	4.999681	107.086000
57.667833	5.004179	107.245000
57.693730	5.009802	107.291000
57.717676	5.013425	107.337000
57.742436	5.017732	107.384000
57.768118	5.024084	107.430000
57.793442	5.028731	107.477000
57.818179	5.036611	107.523000
57.843400	5.042383	107.569000
57.869140	5.049229	107.615000
57.894103	5.055040	107.662000
57.918875	5.061367	107.708000
57.944768	5.068343	107.754000
57.968329	5.076198	107.801000
57.993381	5.080237	107.847000
58.018998	5.086279	107.893000
58.043658	5.089942	107.938000
58.068652	5.093634	107.986000
58.153585	5.097326	108.031000
58.238211	5.107567	108.187000
58.263989	5.107537	108.345000
58.288088	5.106752	108.392000
58.313105	5.107337	108.438000
58.339244	5.108642	108.484000
58.364746	5.109225	108.530000
58.389632	5.109080	108.577000
58.414838	5.108131	108.624000
58.440524	5.108281	108.670000
58.465096	5.110036	108.716000
58.489583	5.109245	108.761000
58.514865	5.111201	108.808000
58.538749	5.114493	108.854000
58.564089	5.119670	108.900000
58.589721	5.124711	108.946000
58.614942	5.128175	108.993000
58.640044	5.132169	109.039000
58.664439	5.134257	109.085000
58.747685	5.137245	109.130000
58.949568	5.147553	109.286000
58.974851	5.145700	109.657000
58.998635	5.145046	109.704000
59.023994	5.144270	109.750000
59.049419	5.144090	109.796000
59.073925	5.142498	109.841000
59.099269	5.139383	109.888000
59.124686	5.137870	109.934000
59.150041	5.135281	109.981000
59.173821	5.130483	110.027000
59.198658	5.125597	110.072000
59.224421	5.122453	110.119000
59.248562	5.120144	110.164000
59.457948	5.117946	110.211000
59.483246	5.081590	110.597000
59.508578	5.077717	110.644000
59.533492	5.074715	110.689000
59.558828	5.073150	110.736000
59.584091	5.073591	110.782000
59.608697	5.072186	110.828000
59.633753	5.071510	110.874000
59.658213	5.072525	110.921000
59.682835	5.073080	110.967000
59.707726	5.076513	111.013000
59.733669	5.079232	111.060000
59.758801	5.081310	111.106000
59.783431	5.082925	111.152000
59.809431	5.084278	111.198000
59.834837	5.086686	111.245000
59.858225	5.088527	111.291000
59.942006	5.090230	111.337000
60.025621	5.097326	111.491000
60.051364	5.100310	111.645000
60.076093	5.103078	111.691000
60.100223	5.107896	111.738000
60.125825	5.113737	111.784000
60.150004	5.119954	111.831000
60.175318	5.128214	111.877000
60.201572	5.135819	111.924000
60.226509	5.143881	111.970000
60.251495	5.152002	112.017000
60.277315	5.160680	112.063000
60.302579	5.165971	112.109000
60.327239	5.171891	112.155000
60.351734	5.178292	112.202000
60.376682	5.184467	112.248000
60.402087	5.191329	112.294000
60.427316	5.198316	112.341000
60.452717	5.204381	112.387000
60.535998	5.212774	112.434000
60.621227	5.254939	112.588000
60.645856	5.261695	112.745000
60.670516	5.269413	112.791000
60.695906	5.276439	112.837000
60.721035	5.282074	112.884000
60.746659	5.288851	112.930000
60.772530	5.296472	112.977000
60.797389	5.303204	113.024000
60.822510	5.311267	113.070000
60.847678	5.315500	113.117000
60.873025	5.322147	113.163000
60.896925	5.326255	113.209000
60.922153	5.332741	113.255000
60.947701	5.340159	113.302000
60.972684	5.347946	113.348000
60.997920	5.354752	113.394000
61.023621	5.359396	113.441000
61.048857	5.366423	113.487000
61.132127	5.370965	113.533000
61.216434	5.411980	113.688000
61.241651	5.422299	113.844000
61.267117	5.431519	113.890000
61.291585	5.442187	113.937000
61.316810	5.450278	113.983000
61.342707	5.459454	114.029000
61.367202	5.469573	114.075000
61.391551	5.477363	114.122000
61.417202	5.485803	114.168000
61.442408	5.494359	114.215000
61.467298	5.502224	114.262000
61.491993	5.509149	114.308000
61.517932	5.515212	114.353000
61.542358	5.522383	114.400000
61.567829	5.526765	114.446000
61.593868	5.532577	114.493000
61.617529	5.537920	114.539000
61.642278	5.542708	114.586000
61.726573	5.549303	114.632000
61.927103	5.607164	114.786000
61.952340	5.611728	115.157000
61.977841	5.617569	115.203000
62.002213	5.625075	115.249000
62.028014	5.634104	115.295000
62.053488	5.640255	115.342000
62.078825	5.648127	115.388000
62.102686	5.657321	115.434000
62.127476	5.662520	115.481000
62.152774	5.669647	115.527000
62.177887	5.673706	115.572000
62.203846	5.679266	115.620000
62.228737	5.684021	115.666000
62.436447	5.687729	115.712000
62.461768	5.738127	116.097000
62.487323	5.747055	116.144000
62.513021	5.754613	116.190000
62.537339	5.762190	116.236000
62.562406	5.770001	116.283000
62.587224	5.774214	116.329000
62.612375	5.779140	116.375000
62.637535	5.783523	116.422000
62.662667	5.788508	116.468000
62.687712	5.793273	116.514000
62.712913	5.798196	116.561000
62.739102	5.804188	116.607000
62.764458	5.808554	116.654000
62.788584	5.811985	116.700000
62.813590	5.814649	116.747000
62.838369	5.815279	116.793000
62.922380	5.816632	116.838000
63.003375	5.816394	116.994000
63.028969	5.815678	117.145000
63.054220	5.816314	117.191000
63.079426	5.818785	117.238000
63.104555	5.821915	117.284000
63.130490	5.825736	117.330000
63.155676	5.829654	117.377000
63.179995	5.835897	117.424000
63.205961	5.840083	117.470000
63.230521	5.845352	117.516000
63.254536	5.851533	117.563000
63.280114	5.857206	117.609000
63.305050	5.863396	117.655000
63.330364	5.870907	117.702000
63.355723	5.875209	117.748000
63.381720	5.880067	117.795000
63.406680	5.884829	117.842000
63.431439	5.890366	117.888000
63.514959	5.895758	117.934000
63.599546	5.928290	118.088000
63.624940	5.934121	118.245000
63.649707	5.940014	118.291000
63.675385	5.946430	118.338000
63.700860	5.950522	118.384000
63.726154	5.953467	118.430000
63.751398	5.956126	118.477000
63.776050	5.956015	118.524000
63.800487	5.954431	118.570000
63.824955	5.953356	118.616000
63.851271	5.952662	118.662000
63.875755	5.950837	118.708000
63.900438	5.948789	118.754000
63.926239	5.946390	118.801000
63.951244	5.943208	118.846000
63.976154	5.937605	118.893000
64.000380	5.931214	118.939000
64.025421	5.921819	118.985000
64.109124	5.912283	119.031000
64.195805	5.868538	119.186000
64.220649	5.865356	119.345000
64.245828	5.863566	119.391000
64.271618	5.863376	119.437000
64.296205	5.866690	119.484000
64.320899	5.869683	119.530000
64.345556	5.872652	119.576000
64.370189	5.874791	119.622000
64.395636	5.878044	119.668000
64.421484	5.881517	119.715000
64.446985	5.885490	119.761000
64.470903	5.889817	119.807000
64.496366	5.896199	119.853000
64.521322	5.902890	119.900000
64.545494	5.908491	119.945000
64.570527	5.913429	119.991000
64.595437	5.918477	120.038000
64.620785	5.923928	120.084000
64.704880	5.925562	120.130000
64.906325	5.925472	120.284000
64.931926	5.928584	120.658000
64.957382	5.933592	120.704000
64.982522	5.940177	120.750000
65.006486	5.945744	120.796000
65.032088	5.955524	120.843000
65.057128	5.965390	120.889000
65.081769	5.973009	120.936000
65.106863	5.981730	120.981000
65.132196	5.987991	121.028000
65.157251	5.993453	121.075000
65.182653	5.998470	121.121000
65.208485	6.000299	121.168000
65.415500	6.004877	121.214000
65.440510	6.035034	121.597000
65.465565	6.035319	121.643000
65.490567	6.036885	121.689000
65.514893	6.039903	121.736000
65.540387	6.041139	121.782000
65.566172	6.044977	121.829000
65.590982	6.048446	121.875000
65.616307	6.056324	121.921000
65.641793	6.064216	121.968000
65.667218	6.067253	122.015000
65.691175	6.069695	122.061000
65.716461	6.073995	122.107000
65.741593	6.078328	122.154000
65.765789	6.084875	122.200000
65.791497	6.089184	122.246000
65.816784	6.096020	122.292000
65.900418	6.099929	122.338000
65.982224	6.137270	122.492000
66.007556	6.142820	122.645000
66.033780	6.148741	122.692000
66.058459	6.153074	122.738000
66.083453	6.155082	122.783000
66.108663	6.157614	122.830000
66.134272	6.158169	122.876000
66.157875	6.159045	122.923000
66.182478	6.158710	122.969000
66.208602	6.158730	123.015000
66.233073	6.159604	123.061000
66.258575	6.159045	123.108000
66.283807	6.159836	123.154000
66.309101	6.161002	123.200000
66.333865	6.164099	123.246000
66.358352	6.167337	123.292000
66.384061	6.168824	123.338000
66.408310	6.171517	123.385000
66.492651	6.174099	123.432000
66.578452	6.197806	123.585000
66.603892	6.203201	123.745000
66.629463	6.211013	123.791000
66.653643	6.218080	123.837000
66.678214	6.223745	123.883000
66.702579	6.229912	123.929000
66.728072	6.237211	123.975000
66.753074	6.242868	124.022000
66.778937	6.247860	124.068000
66.803885	6.251651	124.115000
66.828772	6.255729	124.160000
66.854319	6.258529	124.207000
66.879045	6.263720	124.253000
66.903639	6.266539	124.300000
66.928311	6.269652	124.346000
66.954050	6.272970	124.392000
66.979037	6.276064	124.438000
67.003640	6.278012	124.484000
67.087758	6.278992	124.531000
67.174473	6.282285	124.685000
67.199706	6.279527	124.845000
67.224193	6.275149	124.892000
67.249095	6.272441	124.938000
67.274658	6.269862	124.984000
67.298653	6.265864	125.030000
67.324816	6.263771	125.076000
67.350056	6.260758	125.122000
67.374789	6.256439	125.168000
67.399975	6.250578	125.214000
67.426207	6.244457	125.262000
67.450202	6.238796	125.308000
67.474897	6.233132	125.355000
67.500229	6.229832	125.401000
67.525646	6.224992	125.448000
67.551262	6.222089	125.494000
67.576042	6.220993	125.539000
67.601451	6.218906	125.586000
67.684939	6.217345	125.632000
67.886284	6.245051	125.787000
67.910794	6.245820	126.157000
67.935627	6.249273	126.203000
67.960844	6.251303	126.250000
67.985455	6.252518	126.296000
68.010533	6.252147	126.342000
68.035674	6.252177	126.389000
68.061114	6.254746	126.435000
68.085985	6.256338	126.481000
68.111225	6.259781	126.528000
68.137018	6.262370	126.573000
68.161068	6.268353	126.620000
68.185393	6.273456	126.665000
68.394476	6.279708	126.712000
68.418994	6.343726	127.097000
68.444003	6.351961	127.143000
68.469558	6.358832	127.189000
68.495098	6.363429	127.235000
68.519278	6.367022	127.282000
68.545041	6.370196	127.329000
68.570803	6.371821	127.375000
68.595959	6.371120	127.421000
68.620177	6.369786	127.468000
68.645356	6.368078	127.515000
68.670757	6.367192	127.561000
68.695337	6.365149	127.607000
68.720900	6.366463	127.654000
68.746240	6.369172	127.700000
68.771188	6.373409	127.746000
68.796244	6.377946	127.792000
68.879824	6.382000	127.838000
68.962444	6.421658	127.993000
68.988038	6.431582	128.144000
69.012702	6.441751	128.192000
69.038480	6.452165	128.238000
69.062560	6.463100	128.285000
69.086770	6.471782	128.331000
69.112495	6.480036	128.377000
69.137643	6.488703	128.423000
69.162522	6.496541	128.470000
69.187869	6.506625	128.515000
69.213286	6.512977	128.561000
69.238588	6.520698	128.608000
69.263505	6.527030	128.654000
69.288853	6.535767	128.701000
69.313102	6.543695	128.748000
69.337743	6.550447	128.794000
69.363582	6.560006	128.840000
69.388584	6.569484	128.886000
69.472518	6.580395	128.932000
69.558358	6.616077	129.087000
69.582553	6.618280	129.244000
69.607140	6.621858	129.289000
69.631458	6.621111	129.335000
69.656783	6.620460	129.382000
69.682038	6.620551	129.428000
69.707186	6.621132	129.474000
69.731727	6.620832	129.520000
69.756945	6.617859	129.565000
69.781670	6.618519	129.612000
69.805896	6.619054	129.657000
69.830967	6.620391	129.704000
69.856914	6.622493	129.750000
69.881716	6.625026	129.797000
69.906941	6.629504	129.843000
69.932404	6.635205	129.889000
69.957083	6.638403	129.935000
69.982101	6.642242	129.981000
70.066818	6.645460	130.028000
70.153603	6.675733	130.185000
70.179074	6.683728	130.345000
70.203968	6.691789	130.392000
70.228739	6.701145	130.438000
70.255032	6.708695	130.485000
70.279758	6.719089	130.531000
70.304468	6.728859	130.578000
70.329608	6.738595	130.624000
70.355224	6.746715	130.669000
70.379251	6.753235	130.716000
70.404406	6.761052	130.762000
70.429531	6.769503	130.809000
70.454026	6.776892	130.855000
70.478867	6.785533	130.900000
70.504499	6.794618	130.945000
70.529470	6.803449	130.991000
70.553004	6.813517	131.037000
70.578060	6.822098	131.082000
70.662048	6.830952	131.128000
70.863554	6.923521	131.284000
70.888725	6.932910	131.656000
70.913259	6.941332	131.702000
70.937945	6.950191	131.748000
70.963247	6.959970	131.793000
70.987711	6.968622	131.839000
71.012583	6.977436	131.885000
71.036609	6.987346	131.929000
71.061196	6.995954	131.976000
71.086628	7.004936	132.022000
71.112252	7.012860	132.068000
71.137293	7.020862	132.114000
71.161918	7.025146	132.160000
71.372476	7.028814	132.206000
71.398469	7.018920	132.597000
71.423947	7.016497	132.643000
71.448588	7.015562	132.689000
71.473682	7.015876	132.736000
71.498968	7.015162	132.782000
71.522641	7.015827	132.828000
71.548365	7.011993	132.875000
71.573114	7.008225	132.921000
71.598231	7.004667	132.967000
71.623195	7.001309	133.013000
71.649395	6.998485	133.060000
71.674174	6.998275	133.106000
71.699453	6.999431	133.152000
71.724094	7.003831	133.199000
71.749180	7.006889	133.244000
71.773007	7.007684	133.290000
71.857486	7.010897	133.336000
71.940675	7.033359	133.491000
71.966238	7.035739	133.644000
71.989957	7.041465	133.691000
72.014974	7.047136	133.736000
72.040660	7.055450	133.783000
72.066107	7.062145	133.829000
72.090694	7.071773	133.876000
72.116165	7.080930	133.922000
72.141190	7.090273	133.968000
72.164886	7.101574	134.013000
72.190226	7.110989	134.060000
72.214782	7.122917	134.105000
72.239738	7.132632	134.151000
72.264671	7.144616	134.198000
72.290925	7.158719	134.244000
72.316096	7.174958	134.290000
72.340576	7.193944	134.337000
72.366423	7.210545	134.383000
72.448982	7.226340	134.429000
72.536642	7.312596	134.585000
72.561344	7.330757	134.745000
72.586416	7.348609	134.792000
72.612155	7.365129	134.838000
72.637311	7.381704	134.885000
72.662951	7.396529	134.932000
72.688752	7.412699	134.977000
72.713746	7.430581	135.025000
72.738502	7.447601	135.071000
72.763865	7.464648	135.118000
72.788598	7.480722	135.164000
72.813085	7.499660	135.210000
72.837949	7.517686	135.257000
72.863696	7.537950	135.303000
72.888982	7.560262	135.350000
72.914307	7.585658	135.396000
72.940231	7.608714	135.443000
72.965033	7.632756	135.489000
73.048445	7.656374	135.534000
73.132041	7.780594	135.691000
73.156659	7.799515	135.844000
73.183090	7.817908	135.891000
73.207884	7.836291	135.938000
73.232940	7.853852	135.984000
73.258426	7.872729	136.030000
73.282414	7.892017	136.076000
73.306601	7.910966	136.122000
73.332349	7.932365	136.169000
73.357435	7.951159	136.215000
73.381968	7.970242	136.261000
73.407646	7.986982	136.307000
73.433301	8.007337	136.354000
73.457819	8.028666	136.400000
73.482975	8.049997	136.445000
73.507447	8.074500	136.492000
73.532372	8.099540	136.538000
73.557059	8.122917	136.585000
73.641323	8.145945	136.631000
73.842276	8.378719	136.784000
73.868293	8.398601	137.157000
73.893249	8.418800	137.203000
73.917836	8.438409	137.250000
73.943360	8.459718	137.296000
73.968923	8.484154	137.342000
73.993264	8.509629	137.388000
74.018258	8.536740	137.435000
74.043491	8.563185	137.482000
74.068293	8.592194	137.528000
74.093380	8.618904	137.575000
74.119365	8.643962	137.621000
74.144513	8.667243	137.667000
74.351851	8.691181	137.713000
74.377276	8.879652	138.097000
74.402239	8.904110	138.143000
74.426895	8.929905	138.189000
74.451183	8.956454	138.235000
74.476431	8.985458	138.282000
74.501625	9.010730	138.328000
74.526872	9.036465	138.375000
74.552151	9.062499	138.420000
74.577714	9.089450	138.467000
74.602654	9.116594	138.513000
74.627418	9.143242	138.559000
74.652689	9.173799	138.606000
74.676992	9.200859	138.652000
74.701594	9.228383	138.698000
74.727049	9.255685	138.744000
74.752282	9.283297	138.790000
74.836393	9.312154	138.836000
74.918514	9.506896	138.992000
74.944315	9.543729	139.145000
74.969824	9.581056	139.192000
74.994680	9.615818	139.238000
75.019697	9.647131	139.284000
75.045321	9.674251	139.330000
75.071115	9.701002	139.377000
75.095748	9.725972	139.423000
75.120811	9.750768	139.469000
75.145137	9.776445	139.515000
75.170055	9.801505	139.562000
75.195579	9.826532	139.608000
75.221572	9.851253	139.654000
75.246128	9.875936	139.701000
75.270984	9.900766	139.747000
75.296709	9.923661	139.793000
75.321442	9.945837	139.839000
75.345883	9.968914	139.885000
75.429071	9.991941	139.932000
75.515649	10.130109	140.085000
75.541296	10.158784	140.244000
75.565852	10.188087	140.290000
75.591116	10.217946	140.337000
75.616924	10.250507	140.384000
75.641657	10.283569	140.430000
75.665960	10.316574	140.476000
75.691200	10.347382	140.522000
75.715864	10.377761	140.569000
75.740605	10.408665	140.615000
75.766967	10.446030	140.662000
75.792138	10.487719	140.708000
75.817017	10.528600	140.754000
75.841827	10.571884	140.800000
75.867328	10.615448	140.846000
75.891861	10.662482	140.893000
75.916564	10.711563	140.939000
75.942342	10.761770	140.986000
76.025338	10.811062	141.032000
76.112346	11.081231	141.185000
76.136656	11.126323	141.345000
76.161912	11.172000	141.391000
76.187267	11.215745	141.438000
76.211209	11.261869	141.484000
76.236941	11.308751	141.530000
76.261997	11.354042	141.576000
76.286768	11.401569	141.622000
76.311878	11.449023	141.669000
76.337379	11.492863	141.715000
76.362642	11.535260	141.761000
76.386883	11.578131	141.807000
76.411862	11.621454	141.854000
76.436519	11.663059	141.900000
76.461628	11.711176	141.946000
76.486407	11.758099	141.992000
76.512508	11.806223	142.038000
76.537203	11.857939	142.084000
76.621751	11.910738	142.131000
76.822351	12.449891	142.286000
76.847637	12.502069	142.658000
76.873431	12.549197	142.703000
76.897334	12.597608	142.750000
76.921137	12.643702	142.796000
76.946954	12.691120	142.842000
76.972417	12.742502	142.888000
76.997726	12.792289	142.935000
77.022436	12.843187	142.981000
77.048160	12.894296	143.027000
77.072962	12.943771	143.073000
77.098502	12.994594	143.120000
77.123542	13.049216	143.166000
77.331925	13.106977	143.212000
77.355721	13.521068	143.596000
77.380846	13.565953	143.642000
77.405733	13.614268	143.689000
77.429974	13.664323	143.734000
77.455368	13.713461	143.779000
77.480677	13.766059	143.826000
77.505648	13.819338	143.872000
77.529897	13.869961	143.918000
77.554146	13.919400	143.964000
77.579732	13.967648	144.009000
77.604365	14.019196	144.055000
77.629583	14.070697	144.101000
77.655038	14.119156	144.147000
77.679725	14.165546	144.194000
77.705257	14.208396	144.240000
77.730589	14.251354	144.286000
77.813217	14.292496	144.333000
77.898457	14.619522	144.488000
77.923613	14.686774	144.645000
77.949545	14.749944	144.691000
77.974531	14.806092	144.738000
77.999495	14.857406	144.783000
78.024458	14.907181	144.830000
78.049176	14.957003	144.877000
78.073287	15.004808	144.923000
78.099188	15.057693	144.970000
78.124904	15.107373	145.016000
78.149776	15.155753	145.061000
78.174931	15.199815	145.108000
78.200225	15.243486	145.154000
78.226026	15.283542	145.200000
78.249730	15.326571	145.247000
78.275054	15.369445	145.294000
78.300125	15.411808	145.340000
78.324858	15.457476	145.385000
78.409146	15.503495	145.433000
78.494279	15.864083	145.586000
78.520602	15.945185	145.745000
78.545458	16.021171	145.792000
78.569546	16.095459	145.838000
78.594317	16.160463	145.884000
78.619773	16.225267	145.930000
78.644582	16.287724	145.977000
78.670007	16.350168	146.023000
78.695946	16.413682	146.070000
78.720910	16.476727	146.116000
78.745566	16.537526	146.162000
78.771006	16.600262	146.209000
78.795493	16.661617	146.254000
78.820003	16.725254	146.301000
78.845328	16.788615	146.346000
78.870768	16.852118	146.393000
78.895478	16.915955	146.439000
78.921056	16.973942	146.485000
79.004760	17.031950	146.532000
79.090791	17.376789	146.687000
79.114556	17.441143	146.844000
79.139704	17.505843	146.891000
79.164883	17.568509	146.936000
79.190077	17.630942	146.983000
79.215317	17.699563	147.029000
79.240288	17.772623	147.075000
79.266282	17.842764	147.122000
79.290630	17.908403	147.168000
79.315271	17.976324	147.214000
79.340465	18.047929	147.260000
79.365183	18.123085	147.307000
79.390377	18.187839	147.354000
79.415917	18.250181	147.400000
79.441311	18.320396	147.447000
79.465905	18.397659	147.492000
79.491207	18.486671	147.539000
79.517469	18.589536	147.585000
79.599790	18.696499	147.631000
79.801557	20.301818	147.786000
79.826014	20.440037	148.158000
79.850993	20.569661	148.204000
79.876701	20.695053	148.250000
79.900904	20.815964	148.297000
79.926290	20.933926	148.343000
79.951523	21.047441	148.388000
79.977155	21.161627	148.436000
80.001957	21.283729	148.482000
80.027097	21.405394	148.528000
80.052922	21.528808	148.575000
80.077178	21.653864	148.621000
80.102311	21.781275	148.668000
80.309841	21.905991	148.714000
80.335196	22.923405	149.097000
80.359584	23.034006	149.143000
80.385369	23.140119	149.189000
80.410778	23.243116	149.236000
80.434981	23.346586	149.281000
80.460490	23.453335	149.328000
80.485047	23.563749	149.374000
80.510310	23.672307	149.421000
80.534797	23.781202	149.467000
80.560460	23.886196	149.513000
80.585301	23.994518	149.559000
80.610172	24.106383	149.605000
80.635497	24.220144	149.651000
80.661528	24.340877	149.697000
80.685961	24.465945	149.744000
80.710295	24.593519	149.791000
80.793722	24.726111	149.836000
80.878217	25.520733	149.992000
80.903534	25.665617	150.145000
80.927552	25.812811	150.192000
80.952639	25.953105	150.238000
80.977387	26.092173	150.283000
81.002151	26.229485	150.330000
81.028075	26.361266	150.377000
81.053523	26.490846	150.423000
81.077987	26.615222	150.469000
81.103588	26.737554	150.515000
81.128874	26.864090	150.562000
81.153792	26.989297	150.608000
81.177749	27.110540	150.654000
81.202682	27.228731	150.700000
81.227522	27.351312	150.746000
81.252686	27.471081	150.793000
81.278786	27.584425	150.838000
81.304042	27.696225	150.885000
81.387799	27.804456	150.932000
81.473024	28.412166	151.087000
81.497941	28.531871	151.245000
81.523328	28.650857	151.291000
81.548268	28.764855	151.338000
81.573224	28.868254	151.384000
81.598426	28.966117	151.430000
81.624181	29.063974	151.476000
81.648914	29.162098	151.522000
81.673693	29.255062	151.569000
81.698749	29.347141	151.615000
81.722951	29.442022	151.661000
81.747992	29.540295	151.707000
81.774162	29.646060	151.754000
81.798587	29.764038	151.800000
