Sample	2mm tape 
date	08/01/2025
	
Temperature (K)	77.00
Angle (deg.)	0.000000
field / T	0.150000
	
		
Approx. trace time (s)	120.0	
		
Current / A	V1  -sample/ uV	time/s
-0.017609	0.375501	0.000000
-0.018060	0.385154	0.046000
-0.017512	0.399577	0.092000
-0.017481	0.417184	0.139000
-0.018169	0.433065	0.185000
-0.017384	0.452309	0.231000
-0.017829	0.469971	0.277000
-0.017512	0.487998	0.323000
-0.018492	0.504153	0.369000
-0.017439	0.521413	0.415000
-0.017487	0.537570	0.462000
-0.017775	0.553105	0.508000
-0.017324	0.564904	0.554000
-0.017956	0.578938	0.599000
0.003978	0.592704	0.647000
0.029602	0.637380	0.824000
0.114375	0.665171	0.870000
0.138152	0.668472	1.025000
0.163328	0.670918	1.071000
0.189306	0.672319	1.118000
0.212950	0.673669	1.164000
0.238904	0.675205	1.210000
0.263349	0.675165	1.256000
0.288910	0.678654	1.303000
0.315092	0.679032	1.348000
0.339392	0.677294	1.395000
0.363820	0.675266	1.441000
0.388970	0.672440	1.487000
0.413197	0.669110	1.533000
0.438073	0.665272	1.578000
0.462958	0.659802	1.624000
0.488047	0.656001	1.669000
0.513059	0.654691	1.715000
0.600807	0.652447	1.761000
0.625379	0.646653	1.923000
0.709583	0.652335	1.969000
0.734430	0.659311	2.126000
0.760117	0.657758	2.172000
0.784793	0.665741	2.219000
0.810474	0.672980	2.265000
0.835507	0.679487	2.311000
0.860596	0.687145	2.356000
0.885540	0.692626	2.403000
0.910642	0.702252	2.449000
0.935632	0.706129	2.496000
0.959768	0.709132	2.543000
0.984957	0.711889	2.589000
1.009911	0.716201	2.634000
1.035532	0.722486	2.681000
1.060544	0.715791	2.727000
1.085834	0.718321	2.774000
1.111201	0.717610	2.820000
1.311215	0.720152	2.866000
1.336523	0.741435	3.236000
1.361283	0.745055	3.282000
1.385953	0.744833	3.328000
1.410393	0.748362	3.375000
1.435684	0.746801	3.421000
1.460787	0.743708	3.467000
1.486121	0.742279	3.513000
1.511394	0.744843	3.560000
1.536375	0.746322	3.606000
1.561776	0.746342	3.652000
1.586617	0.749487	3.698000
1.611053	0.750917	3.744000
1.635610	0.753888	3.790000
1.660710	0.752032	3.837000
1.685874	0.749669	3.883000
1.711289	0.749437	3.929000
1.795521	0.748664	3.974000
2.006855	0.745291	4.129000
2.032151	0.747496	4.522000
2.057261	0.747155	4.568000
2.082431	0.748108	4.613000
2.108069	0.747124	4.660000
2.132556	0.747653	4.706000
2.157232	0.750460	4.752000
2.181502	0.754654	4.798000
2.207020	0.756736	4.844000
2.232532	0.761400	4.891000
2.257585	0.765371	4.937000
2.282760	0.773862	4.984000
2.307625	0.780107	5.030000
2.392184	0.788052	5.076000
2.488423	0.800618	5.231000
2.513276	0.799594	5.409000
2.537826	0.797709	5.456000
2.562664	0.797588	5.501000
2.587742	0.795180	5.547000
2.613062	0.793491	5.594000
2.638157	0.794454	5.640000
2.663295	0.794161	5.687000
2.688779	0.792284	5.732000
2.713608	0.791758	5.779000
2.738899	0.788786	5.825000
2.763560	0.786993	5.872000
2.787706	0.785035	5.918000
2.812905	0.784292	5.963000
2.838037	0.782399	6.010000
2.863266	0.784640	6.055000
2.888192	0.786993	6.102000
2.983901	0.782814	6.147000
3.008503	0.778461	6.324000
3.092480	0.767759	6.370000
3.117679	0.764645	6.526000
3.142628	0.762161	6.573000
3.168350	0.758370	6.619000
3.193105	0.754242	6.666000
3.218804	0.744539	6.711000
3.243959	0.739683	6.758000
3.269202	0.730071	6.804000
3.293729	0.718036	6.850000
3.318014	0.711937	6.896000
3.342653	0.705491	6.943000
3.368169	0.700749	6.989000
3.393427	0.701300	7.035000
3.418243	0.700183	7.082000
3.444098	0.699521	7.128000
3.469291	0.698040	7.174000
3.494906	0.698343	7.221000
3.579240	0.702498	7.267000
3.603626	0.717012	7.424000
3.688800	0.741934	7.470000
3.713581	0.749304	7.627000
3.738799	0.755033	7.673000
3.764077	0.761359	7.718000
3.788960	0.767910	7.765000
3.814302	0.773091	7.811000
3.838924	0.771783	7.857000
3.863681	0.773343	7.904000
3.888000	0.777603	7.949000
3.913464	0.776720	7.996000
3.938445	0.779641	8.042000
3.963989	0.779374	8.088000
3.988929	0.780026	8.134000
4.014280	0.778931	8.180000
4.039054	0.783271	8.227000
4.063999	0.789961	8.273000
4.088764	0.795589	8.319000
4.290012	0.800031	8.365000
4.314719	0.827462	8.735000
4.339473	0.829703	8.781000
4.364488	0.830442	8.828000
4.389894	0.831903	8.875000
4.414958	0.831974	8.922000
4.440612	0.835675	8.967000
4.465549	0.839800	9.013000
4.490947	0.845043	9.059000
4.516077	0.849694	9.106000
4.540523	0.848064	9.153000
4.565238	0.851924	9.198000
4.590511	0.855060	9.246000
4.615785	0.861496	9.292000
4.640942	0.866070	9.338000
4.665951	0.870986	9.385000
4.691642	0.876413	9.431000
4.775480	0.881797	9.477000
4.985839	0.910743	9.632000
5.011435	0.912893	10.021000
5.036457	0.913785	10.067000
5.060836	0.915660	10.114000
5.085824	0.915609	10.160000
5.110489	0.926467	10.206000
5.135804	0.931577	10.253000
5.160839	0.936450	10.298000
5.186060	0.942654	10.345000
5.211296	0.948644	10.391000
5.236488	0.951031	10.438000
5.261849	0.951243	10.483000
5.286574	0.954362	10.530000
5.370251	0.962077	10.577000
5.466104	0.994614	10.731000
5.491447	1.001772	10.909000
5.516487	1.015144	10.956000
5.541774	1.029249	11.002000
5.566980	1.041955	11.048000
5.592277	1.052434	11.093000
5.617511	1.060649	11.140000
5.642448	1.072297	11.186000
5.666943	1.081538	11.233000
5.691593	1.089682	11.279000
5.716429	1.102028	11.325000
5.742138	1.112426	11.371000
5.766568	1.125056	11.417000
5.792017	1.130996	11.463000
5.817231	1.137562	11.510000
5.842552	1.142837	11.556000
5.867554	1.145554	11.602000
5.962027	1.149855	11.648000
5.987123	1.152520	11.824000
6.071216	1.154141	11.870000
6.096509	1.152884	12.026000
6.121573	1.152495	12.072000
6.146974	1.157690	12.118000
6.172201	1.162425	12.165000
6.197368	1.164228	12.211000
6.222113	1.167554	12.257000
6.246682	1.170069	12.303000
6.271787	1.173969	12.350000
6.296735	1.181188	12.396000
6.322045	1.186947	12.443000
6.347020	1.195640	12.489000
6.372439	1.203031	12.535000
6.398033	1.206914	12.581000
6.422582	1.214620	12.627000
6.446900	1.221859	12.673000
6.471436	1.229453	12.719000
6.557274	1.235384	12.765000
6.582548	1.258566	12.923000
6.667526	1.277431	12.969000
6.692704	1.278053	13.125000
6.717625	1.276887	13.172000
6.742366	1.276154	13.218000
6.767075	1.271798	13.265000
6.792018	1.268765	13.311000
6.817266	1.270409	13.357000
6.842639	1.265745	13.404000
6.867357	1.262713	13.449000
6.892882	1.256953	13.496000
6.918220	1.255241	13.543000
6.943541	1.252168	13.589000
6.955627	1.250961	13.635000
6.993289	1.250147	13.681000
7.017290	1.250728	13.727000
7.042289	1.255957	13.773000
7.067493	1.259703	13.819000
7.268161	1.265589	13.865000
7.293172	1.303328	14.236000
7.318675	1.305881	14.282000
7.343591	1.307496	14.329000
7.369057	1.306259	14.375000
7.393853	1.305346	14.421000
7.418580	1.301322	14.467000
7.443395	1.298522	14.513000
7.467931	1.298401	14.559000
7.493925	1.294478	14.605000
7.518838	1.293585	14.652000
7.544407	1.292792	14.698000
7.569600	1.294599	14.745000
7.594412	1.294721	14.791000
7.619625	1.292907	14.836000
7.644373	1.291253	14.883000
7.668953	1.294508	14.929000
7.752851	1.300095	14.975000
7.965829	1.352002	15.130000
7.989868	1.358066	15.522000
8.014969	1.354854	15.568000
8.040006	1.352239	15.614000
8.064664	1.351650	15.660000
8.090575	1.351498	15.707000
8.116055	1.346965	15.753000
8.140708	1.341034	15.799000
8.165993	1.340497	15.845000
8.191296	1.337485	15.892000
8.216009	1.328236	15.938000
8.240192	1.323453	15.984000
8.264924	1.317106	16.030000
8.349142	1.312209	16.076000
8.445673	1.309086	16.230000
8.470798	1.313568	16.409000
8.496201	1.319479	16.455000
8.520684	1.323442	16.501000
8.546235	1.327050	16.548000
8.570659	1.332609	16.594000
8.595025	1.331038	16.640000
8.620403	1.338550	16.686000
8.645304	1.338439	16.731000
8.671094	1.337882	16.778000
8.696067	1.339362	16.824000
8.721328	1.337913	16.871000
8.746144	1.337465	16.917000
8.771367	1.338155	16.963000
8.795497	1.340184	17.009000
8.820447	1.339777	17.055000
8.845514	1.342556	17.102000
8.940765	1.338611	17.148000
8.965779	1.338963	17.324000
9.050746	1.333036	17.369000
9.076405	1.331765	17.526000
9.101084	1.327853	17.572000
9.125651	1.322104	17.618000
9.150163	1.323098	17.664000
9.175144	1.316985	17.711000
9.200315	1.314734	17.756000
9.226029	1.313102	17.803000
9.251410	1.311538	17.849000
9.276263	1.310392	17.896000
9.301704	1.311428	17.942000
9.326528	1.313699	17.989000
9.351498	1.316691	18.034000
9.376340	1.318283	18.081000
9.400822	1.320594	18.127000
9.426183	1.320997	18.173000
9.450676	1.322734	18.218000
9.537039	1.325299	18.264000
9.562109	1.328878	18.424000
9.646912	1.319642	18.470000
9.671556	1.311765	18.626000
9.696068	1.307445	18.672000
9.721236	1.298289	18.718000
9.746118	1.291882	18.764000
9.771075	1.279147	18.810000
9.796280	1.274624	18.855000
9.821463	1.267244	18.902000
9.846365	1.261545	18.948000
9.870937	1.254536	18.994000
9.896237	1.247006	19.041000
9.921120	1.242514	19.087000
9.946004	1.243245	19.134000
9.971093	1.235820	19.180000
9.996433	1.226735	19.226000
10.022024	1.216830	19.273000
10.047193	1.211323	19.319000
10.247745	1.197159	19.365000
10.272779	1.128149	19.735000
10.297966	1.121622	19.782000
10.323017	1.112462	19.828000
10.347091	1.105758	19.874000
10.372011	1.098145	19.920000
10.396646	1.091320	19.966000
10.422162	1.082498	20.012000
10.447457	1.075177	20.058000
10.472075	1.071523	20.105000
10.497523	1.063692	20.150000
10.522950	1.057226	20.197000
10.548473	1.052409	20.243000
10.572670	1.046584	20.290000
10.597287	1.045508	20.337000
10.622485	1.037252	20.382000
10.647705	1.032777	20.429000
10.732165	1.028288	20.475000
10.942770	0.977060	20.630000
10.968461	0.968248	21.021000
10.993301	0.960917	21.068000
11.019348	0.954255	21.113000
11.043734	0.946171	21.160000
11.068914	0.938861	21.205000
11.093882	0.929826	21.251000
11.118328	0.921038	21.298000
11.142936	0.912563	21.344000
11.167820	0.899352	21.390000
11.193057	0.891240	21.437000
11.218753	0.881659	21.483000
11.244135	0.871517	21.529000
11.327801	0.860997	21.575000
11.424781	0.808605	21.730000
11.449683	0.802105	21.909000
11.474630	0.789035	21.955000
11.498945	0.784483	22.001000
11.523780	0.776980	22.047000
11.549028	0.776270	22.093000
11.573953	0.772144	22.139000
11.599340	0.767339	22.186000
11.624357	0.763921	22.232000
11.649824	0.758516	22.278000
11.674984	0.756693	22.324000
11.699597	0.752231	22.370000
11.724109	0.750680	22.416000
11.748749	0.745753	22.463000
11.774519	0.741656	22.510000
11.799302	0.739433	22.556000
11.825059	0.736142	22.602000
11.919867	0.734820	22.648000
11.945408	0.732674	22.823000
12.029794	0.731275	22.870000
12.054165	0.730969	23.025000
12.079078	0.730514	23.072000
12.103711	0.730746	23.118000
12.129864	0.731791	23.165000
12.154666	0.735623	23.211000
12.179674	0.737257	23.257000
12.205101	0.744128	23.304000
12.229956	0.749403	23.349000
12.254937	0.755233	23.396000
12.279011	0.768177	23.442000
12.304034	0.773715	23.488000
12.329121	0.780509	23.534000
12.354383	0.789479	23.580000
12.379643	0.800096	23.627000
12.404680	0.807631	23.673000
12.430159	0.813556	23.719000
12.515604	0.825915	23.765000
12.541063	0.857201	23.924000
12.624076	0.878639	23.970000
12.649810	0.884894	24.125000
12.674549	0.890926	24.172000
12.700155	0.903581	24.218000
12.725523	0.911437	24.265000
12.750373	0.922541	24.311000
12.775439	0.931794	24.357000
12.799737	0.943390	24.402000
12.824309	0.953395	24.449000
12.849310	0.964299	24.495000
12.874667	0.977019	24.541000
12.900038	0.986230	24.588000
12.925017	0.994759	24.634000
12.950674	1.004273	24.680000
12.975241	1.011047	24.726000
13.000814	1.012467	24.773000
13.025957	1.016896	24.820000
13.226214	1.016406	24.865000
13.251610	1.021507	25.236000
13.276201	1.021446	25.282000
13.301095	1.017250	25.329000
13.325805	1.010072	25.375000
13.351510	1.003706	25.421000
13.376767	1.000699	25.468000
13.402247	0.991907	25.514000
13.427176	0.985906	25.561000
13.452645	0.978870	25.607000
13.478295	0.974552	25.654000
13.502796	0.971569	25.700000
13.527442	0.972197	25.746000
13.551596	0.972818	25.792000
13.577169	0.975953	25.838000
13.602308	0.978197	25.884000
13.626986	0.979815	25.931000
13.711420	0.984678	25.976000
13.921995	0.978453	26.132000
13.947516	0.980259	26.521000
13.972989	0.980188	26.568000
13.997953	0.979925	26.614000
14.022981	0.972665	26.660000
14.046807	0.969070	26.706000
14.072303	0.965229	26.753000
14.097118	0.963606	26.799000
14.122086	0.954976	26.845000
14.147636	0.951210	26.891000
14.173267	0.947686	26.938000
14.198538	0.941145	26.984000
14.223539	0.934597	27.031000
14.306102	0.927784	27.077000
14.403483	0.894535	27.232000
14.427875	0.887741	27.409000
14.453097	0.882864	27.456000
14.478232	0.879763	27.502000
14.502998	0.873475	27.548000
14.528524	0.870951	27.595000
14.553655	0.865030	27.641000
14.578805	0.861431	27.687000
14.603840	0.857356	27.733000
14.628843	0.853989	27.780000
14.653581	0.846372	27.825000
14.678062	0.844337	27.872000
14.703328	0.841042	27.918000
14.728407	0.834847	27.965000
14.754155	0.834055	28.011000
14.779516	0.830679	28.057000
14.804441	0.825448	28.104000
14.898689	0.826311	28.150000
14.923664	0.823066	28.324000
15.008073	0.830839	28.370000
15.033077	0.833782	28.526000
15.058610	0.841193	28.572000
15.083328	0.847684	28.617000
15.109178	0.851161	28.664000
15.134321	0.857437	28.711000
15.159264	0.862888	28.757000
15.183923	0.871571	28.803000
15.209044	0.878251	28.849000
15.233782	0.889871	28.896000
15.259000	0.902940	28.942000
15.283964	0.913373	28.988000
15.309050	0.926120	29.035000
15.334842	0.937085	29.081000
15.360249	0.950406	29.128000
15.385168	0.958651	29.174000
15.410572	0.971295	29.220000
15.531562	0.984687	29.266000
15.595716	1.059427	29.491000
15.620623	1.065090	29.609000
15.646150	1.074078	29.656000
15.670970	1.082944	29.701000
15.695731	1.087490	29.748000
15.720073	1.088435	29.794000
15.744978	1.093552	29.840000
15.770189	1.093238	29.886000
15.795018	1.095462	29.932000
15.820739	1.092894	29.978000
15.845620	1.089684	30.024000
15.871074	1.085094	30.071000
15.895696	1.082040	30.117000
15.920270	1.077733	30.163000
15.944469	1.075458	30.208000
15.970039	1.069184	30.255000
15.995287	1.069265	30.301000
16.204655	1.067425	30.348000
16.300360	1.039886	30.736000
16.325004	1.047197	30.912000
16.350610	1.054430	30.958000
16.375880	1.059364	31.004000
16.401049	1.059587	31.050000
16.426069	1.067579	31.097000
16.451509	1.073964	31.143000
16.476292	1.077629	31.189000
16.500773	1.081835	31.235000
16.525412	1.090951	31.282000
16.550064	1.094883	31.327000
16.575508	1.103422	31.374000
16.600602	1.110671	31.419000
16.686375	1.110581	31.465000
16.711713	1.092963	31.624000
16.910860	1.029417	31.670000
16.936586	1.019474	32.038000
16.960676	1.011749	32.084000
16.985524	1.003129	32.130000
17.010267	0.990355	32.176000
17.035446	0.983965	32.223000
17.060947	0.975548	32.269000
17.085868	0.970806	32.315000
17.111558	0.960493	32.362000
17.136377	0.961332	32.408000
17.161420	0.954714	32.454000
17.186230	0.954481	32.500000
17.282605	0.953617	32.546000
17.306522	0.951474	32.724000
17.390888	0.937556	32.770000
17.415763	0.934255	32.925000
17.440525	0.932354	32.971000
17.465852	0.929574	33.017000
17.491733	0.931005	33.063000
17.516622	0.927157	33.110000
17.541261	0.925480	33.156000
17.565479	0.921889	33.202000
17.591007	0.918699	33.248000
17.615667	0.918160	33.294000
17.640973	0.920532	33.341000
17.666399	0.919032	33.387000
17.691351	0.917947	33.433000
17.716325	0.919935	33.479000
17.741352	0.924691	33.525000
17.765683	0.929271	33.571000
17.790141	0.936222	33.617000
17.877420	0.945170	33.664000
17.902502	0.970857	33.824000
17.987195	0.997978	33.870000
18.012214	1.005900	34.026000
18.037247	1.011870	34.071000
18.062641	1.013821	34.117000
18.087445	1.022113	34.165000
18.111892	1.020277	34.211000
18.136856	1.029129	34.257000
18.162196	1.031162	34.302000
18.187059	1.032400	34.349000
18.212336	1.038826	34.395000
18.237570	1.042785	34.441000
18.262551	1.047163	34.488000
18.287459	1.052744	34.534000
18.312415	1.060362	34.580000
18.336837	1.067000	34.626000
18.361403	1.070423	34.672000
18.386791	1.075938	34.718000
18.473212	1.077460	34.764000
18.498153	1.084771	34.923000
18.583149	1.082113	34.969000
18.608234	1.078306	35.126000
18.633608	1.076497	35.172000
18.657675	1.075147	35.218000
18.682431	1.073281	35.265000
18.707569	1.071350	35.311000
18.733011	1.070132	35.357000
18.758320	1.069450	35.404000
18.782988	1.070283	35.449000
18.808707	1.070375	35.496000
18.833430	1.072771	35.542000
18.857788	1.074813	35.588000
18.882581	1.077199	35.633000
18.907644	1.081850	35.680000
18.933098	1.087658	35.727000
18.958096	1.090166	35.773000
18.983626	1.100544	35.819000
19.183903	1.105019	35.866000
19.208792	1.150043	36.236000
19.234524	1.155772	36.282000
19.259420	1.162248	36.329000
19.284887	1.167958	36.374000
19.309303	1.172954	36.421000
19.333882	1.178493	36.466000
19.359047	1.180339	36.513000
19.383811	1.188683	36.559000
19.408944	1.194096	36.605000
19.434025	1.200007	36.651000
19.459393	1.206281	36.697000
19.484418	1.213317	36.743000
19.509455	1.219910	36.790000
19.534069	1.224908	36.836000
19.558821	1.232530	36.882000
19.584330	1.237411	36.929000
19.668428	1.242352	36.975000
19.880055	1.243069	37.130000
19.904629	1.242382	37.521000
19.929942	1.244714	37.567000
19.955286	1.248172	37.614000
19.980745	1.249429	37.660000
20.005983	1.252775	37.707000
20.031212	1.259151	37.753000
20.056786	1.264567	37.799000
20.081312	1.267415	37.846000
20.106354	1.273113	37.892000
20.130824	1.278081	37.938000
20.155970	1.283332	37.984000
20.180682	1.289994	38.031000
20.265294	1.294698	38.078000
20.361133	1.326137	38.232000
20.386838	1.327499	38.409000
20.411727	1.324910	38.456000
20.436802	1.322683	38.502000
20.461426	1.324517	38.548000
20.486262	1.323047	38.595000
20.511308	1.319397	38.641000
20.536977	1.313183	38.688000
20.561987	1.309958	38.734000
20.587089	1.309025	38.780000
20.612069	1.306166	38.826000
20.637592	1.303547	38.872000
20.662594	1.300124	38.919000
20.687757	1.298237	38.965000
20.711793	1.298217	39.011000
20.736513	1.301225	39.058000
20.762164	1.299767	39.104000
20.856265	1.300114	39.150000
20.881517	1.296270	39.324000
20.966154	1.299889	39.370000
20.991573	1.294233	39.526000
21.016338	1.295490	39.572000
21.040910	1.291644	39.619000
21.065843	1.290196	39.665000
21.090814	1.291911	39.711000
21.116260	1.293118	39.757000
21.141361	1.298288	39.804000
21.166446	1.303804	39.850000
21.192051	1.311124	39.896000
21.217017	1.314794	39.942000
21.241220	1.321881	39.988000
21.266097	1.328318	40.035000
21.291099	1.334798	40.081000
21.316126	1.341215	40.128000
21.342144	1.347137	40.174000
21.367134	1.351831	40.220000
21.452457	1.356484	40.267000
21.477866	1.368860	40.424000
21.561126	1.368462	40.470000
21.585692	1.364685	40.625000
21.610680	1.361672	40.672000
21.636065	1.356990	40.716000
21.660961	1.351957	40.764000
21.686593	1.345339	40.810000
21.711637	1.338707	40.856000
21.737104	1.333325	40.902000
21.760928	1.322770	40.948000
21.786051	1.313482	40.995000
21.811378	1.313411	41.041000
21.836593	1.311151	41.088000
21.861674	1.310258	41.133000
21.886545	1.306486	41.180000
21.912414	1.310359	41.227000
21.937339	1.306223	41.272000
21.962206	1.304013	41.319000
22.162981	1.303557	41.365000
22.187785	1.306011	41.736000
22.213008	1.307905	41.782000
22.237174	1.312296	41.827000
22.261976	1.316450	41.874000
22.287295	1.320995	41.920000
22.312430	1.323709	41.967000
22.337775	1.328383	42.012000
22.362996	1.327950	42.060000
22.388876	1.329529	42.106000
22.413534	1.330806	42.153000
22.438690	1.332422	42.198000
22.463542	1.335460	42.245000
22.488223	1.333689	42.291000
22.513646	1.330505	42.338000
22.539172	1.330495	42.384000
22.564405	1.331458	42.431000
22.648758	1.329420	42.477000
22.859380	1.359180	42.632000
22.884601	1.360585	43.021000
22.909845	1.367273	43.068000
22.935080	1.376959	43.115000
22.960452	1.382101	43.161000
22.985992	1.389663	43.207000
23.010162	1.396863	43.254000
23.035337	1.403971	43.299000
23.059995	1.413444	43.346000
23.085259	1.423302	43.393000
23.110295	1.425976	43.438000
23.135216	1.432290	43.485000
23.161196	1.435061	43.532000
23.244506	1.437917	43.578000
23.340566	1.418176	43.732000
23.365443	1.409151	43.909000
23.390526	1.402974	43.956000
23.415057	1.394825	44.002000
23.440326	1.388830	44.048000
23.465202	1.385205	44.094000
23.490528	1.381509	44.141000
23.516008	1.375711	44.187000
23.541089	1.368891	44.234000
23.566760	1.365236	44.280000
23.591614	1.360453	44.327000
23.616011	1.353349	44.372000
23.640396	1.346889	44.419000
23.665742	1.337248	44.465000
23.690857	1.334733	44.511000
23.716139	1.327687	44.557000
23.741733	1.320984	44.603000
23.835756	1.314769	44.649000
23.860727	1.289929	44.824000
23.943956	1.269399	44.870000
23.968923	1.261957	45.026000
23.994298	1.258965	45.072000
24.019398	1.255639	45.117000
24.044888	1.253095	45.164000
24.070139	1.255588	45.210000
24.095767	1.257046	45.256000
24.120487	1.261267	45.303000
24.145526	1.265240	45.349000
24.170222	1.269571	45.396000
24.194984	1.275775	45.442000
24.220184	1.280692	45.489000
24.245017	1.282124	45.535000
24.270457	1.286784	45.581000
24.295601	1.291328	45.627000
24.321215	1.297596	45.673000
24.346031	1.303891	45.720000
24.431285	1.311079	45.766000
24.455353	1.326784	45.923000
24.540144	1.345096	45.969000
24.565152	1.346333	46.125000
24.590321	1.352254	46.171000
24.615978	1.355640	46.217000
24.640688	1.353461	46.263000
24.665267	1.352537	46.310000
24.689422	1.351098	46.355000
24.714820	1.354475	46.402000
24.740106	1.352173	46.448000
24.765062	1.352548	46.493000
24.790579	1.354037	46.540000
24.815924	1.354444	46.587000
24.840556	1.359018	46.633000
24.865752	1.362930	46.679000
24.890202	1.365792	46.726000
24.915170	1.373461	46.772000
24.939880	1.379245	46.818000
25.142131	1.380750	46.864000
25.166743	1.437876	47.236000
25.191555	1.445005	47.282000
25.216726	1.453320	47.329000
25.241870	1.460398	47.375000
25.267710	1.463412	47.421000
25.292831	1.476162	47.468000
25.317986	1.476658	47.514000
25.343111	1.480435	47.561000
25.368565	1.482851	47.607000
25.393559	1.484964	47.654000
25.418123	1.483280	47.700000
25.443524	1.488927	47.747000
25.468240	1.491242	47.793000
25.493288	1.492042	47.840000
25.519005	1.498204	47.886000
25.544064	1.501394	47.933000
25.628177	1.503921	47.979000
25.838204	1.532690	48.133000
25.863347	1.530740	48.521000
25.888433	1.524259	48.568000
25.913600	1.518380	48.614000
25.937719	1.513364	48.660000
25.962632	1.508106	48.706000
25.988170	1.500817	48.753000
26.013435	1.491575	48.799000
26.038604	1.485231	48.846000
26.063864	1.472689	48.892000
26.089071	1.465196	48.937000
26.114332	1.452972	48.983000
26.139540	1.442486	49.031000
26.222262	1.431092	49.077000
26.318549	1.362025	49.231000
26.343326	1.355001	49.410000
26.369271	1.346464	49.455000
26.394398	1.339589	49.502000
26.419352	1.330729	49.548000
26.444327	1.325575	49.595000
26.469548	1.318468	49.641000
26.494685	1.315196	49.687000
26.519423	1.311291	49.733000
26.544306	1.302795	49.779000
26.569130	1.296267	49.826000
26.593924	1.285540	49.872000
26.619616	1.279649	49.918000
26.644389	1.272295	49.964000
26.669287	1.264856	50.010000
26.694381	1.255789	50.056000
26.718677	1.250892	50.102000
26.813898	1.246445	50.147000
26.838425	1.220303	50.324000
26.923679	1.204618	50.370000
26.948435	1.199587	50.526000
26.974336	1.197784	50.573000
26.999192	1.189531	50.619000
27.024200	1.186865	50.665000
27.049540	1.183059	50.711000
27.073819	1.179798	50.757000
27.098892	1.179970	50.804000
27.123510	1.173286	50.850000
27.148668	1.170278	50.896000
27.174129	1.168683	50.942000
27.199400	1.163312	50.989000
27.224400	1.163524	51.034000
27.249907	1.159182	51.081000
27.274970	1.156690	51.128000
27.299544	1.153528	51.174000
27.324469	1.150526	51.221000
27.409346	1.148632	51.267000
27.434300	1.136148	51.423000
27.519412	1.128006	51.470000
27.544694	1.127885	51.626000
27.569834	1.128239	51.671000
27.594176	1.126494	51.718000
27.618670	1.124128	51.764000
27.643624	1.121974	51.810000
27.668765	1.120746	51.856000
27.694187	1.117384	51.903000
27.719435	1.113891	51.949000
27.744802	1.110378	51.995000
27.769904	1.110014	52.042000
27.795150	1.107010	52.088000
27.819768	1.107000	52.134000
27.844931	1.103901	52.181000
27.869470	1.100145	52.227000
27.895081	1.098356	52.274000
27.920171	1.095626	52.320000
28.120018	1.094236	52.366000
28.145606	1.094165	52.736000
28.170158	1.097391	52.781000
28.195546	1.097982	52.827000
28.220508	1.100530	52.874000
28.245402	1.103881	52.920000
28.270128	1.107152	52.966000
28.294494	1.112879	53.012000
28.319630	1.113587	53.058000
28.344586	1.119629	53.105000
28.370276	1.120969	53.151000
28.395253	1.125387	53.197000
28.420347	1.124729	53.243000
28.445355	1.126717	53.289000
28.470602	1.131084	53.335000
28.495330	1.134921	53.382000
28.519767	1.137678	53.428000
28.604089	1.142160	53.474000
28.817424	1.138591	53.629000
28.841638	1.134860	54.021000
28.866617	1.133031	54.068000
28.892009	1.134067	54.114000
28.916777	1.137949	54.161000
28.942046	1.138945	54.207000
28.967916	1.139483	54.254000
28.992784	1.140923	54.299000
29.018466	1.145362	54.347000
29.043477	1.148184	54.393000
29.068585	1.151672	54.439000
29.093022	1.150923	54.486000
29.117396	1.151399	54.532000
29.202156	1.152585	54.578000
29.297350	1.154795	54.733000
29.322613	1.153477	54.909000
29.347511	1.151489	54.955000
29.372494	1.152281	55.001000
29.397185	1.150777	55.047000
29.422110	1.150121	55.094000
29.446960	1.148611	55.140000
29.471839	1.147263	55.186000
29.497320	1.150272	55.232000
29.522087	1.148222	55.278000
29.547473	1.148489	55.323000
29.572068	1.148439	55.369000
29.596847	1.149615	55.415000
29.621461	1.149177	55.462000
29.646033	1.151933	55.508000
29.671563	1.152797	55.555000
29.697134	1.153234	55.601000
29.792207	1.157056	55.648000
29.816767	1.170591	55.823000
29.902299	1.182676	55.869000
29.927290	1.186334	56.025000
29.952307	1.191832	56.071000
29.976654	1.196698	56.117000
30.001675	1.201403	56.164000
30.026644	1.205265	56.210000
30.051283	1.207142	56.257000
30.077040	1.212140	56.303000
30.101823	1.215233	56.349000
30.126796	1.217178	56.394000
30.151875	1.221417	56.440000
30.175277	1.221832	56.486000
30.200083	1.225602	56.531000
30.224728	1.230389	56.577000
30.250348	1.233452	56.623000
30.275650	1.238581	56.670000
30.300796	1.241608	56.716000
30.387907	1.247792	56.761000
30.413307	1.255863	56.924000
30.497752	1.265121	56.970000
30.522302	1.267286	57.127000
30.547160	1.268649	57.172000
30.572335	1.269916	57.218000
30.597733	1.272713	57.264000
30.622735	1.277780	57.311000
30.647885	1.280552	57.357000
30.673294	1.285964	57.404000
30.698267	1.291805	57.450000
30.723595	1.296912	57.496000
30.748206	1.304945	57.543000
30.773152	1.312163	57.589000
30.797558	1.317098	57.634000
30.822593	1.326927	57.681000
30.847823	1.336336	57.727000
30.873052	1.343211	57.773000
30.898411	1.352364	57.819000
31.098577	1.361994	57.865000
31.123878	1.465898	58.236000
31.148633	1.481878	58.281000
31.173642	1.495402	58.328000
31.198994	1.506534	58.374000
31.223516	1.517033	58.421000
31.248738	1.522953	58.467000
31.273758	1.530537	58.514000
31.299173	1.535349	58.560000
31.324432	1.541542	58.606000
31.349686	1.548144	58.652000
31.375116	1.552103	58.699000
31.399697	1.557861	58.745000
31.424409	1.562734	58.791000
31.449010	1.571966	58.837000
31.473883	1.575962	58.883000
31.499400	1.584458	58.930000
31.583935	1.589772	58.976000
31.794329	1.610281	59.131000
31.820067	1.598115	59.522000
31.844911	1.593876	59.568000
31.870232	1.591463	59.615000
31.895899	1.585147	59.661000
31.920628	1.584224	59.707000
31.945809	1.580686	59.753000
31.970394	1.575501	59.799000
31.994865	1.578242	59.845000
32.019721	1.569013	59.891000
32.044697	1.569256	59.937000
32.069750	1.569195	59.984000
32.095225	1.571688	60.030000
32.179193	1.573202	60.076000
32.276051	1.587318	60.229000
32.301330	1.591464	60.409000
32.325944	1.595212	60.455000
32.350869	1.598318	60.502000
32.375575	1.598650	60.548000
32.400592	1.599697	60.594000
32.425913	1.605152	60.640000
32.451161	1.608403	60.687000
32.476347	1.611013	60.733000
32.501380	1.610262	60.779000
32.526589	1.609379	60.825000
32.550904	1.608468	60.871000
32.575683	1.606106	60.918000
32.601019	1.603946	60.964000
32.626159	1.604910	61.010000
32.651238	1.596328	61.057000
32.676244	1.590826	61.103000
32.771327	1.591749	61.149000
32.796279	1.580907	61.324000
32.880743	1.572753	61.370000
32.905115	1.570441	61.526000
32.930205	1.570401	61.573000
32.955695	1.567868	61.619000
32.980394	1.569805	61.664000
33.005661	1.570038	61.711000
33.030636	1.564775	61.757000
33.055657	1.566034	61.802000
33.080240	1.564907	61.848000
33.104324	1.563037	61.894000
33.129099	1.557951	61.940000
33.153951	1.553527	61.984000
33.179042	1.551100	62.030000
33.203898	1.544953	62.076000
33.228485	1.542325	62.121000
33.253225	1.537765	62.168000
33.277025	1.529550	62.213000
33.367190	1.525905	62.259000
33.391889	1.502023	62.424000
33.475742	1.489016	62.470000
33.500564	1.483076	62.626000
33.526334	1.486752	62.672000
33.550856	1.484416	62.718000
33.576199	1.483728	62.764000
33.601286	1.484396	62.810000
33.626234	1.478233	62.856000
33.651082	1.475897	62.903000
33.675347	1.475887	62.948000
33.701052	1.472975	62.995000
33.726000	1.467945	63.042000
33.751060	1.472009	63.088000
33.776741	1.463875	63.134000
33.801471	1.462843	63.180000
33.827003	1.463066	63.226000
33.852304	1.459562	63.273000
33.876795	1.455796	63.319000
34.077614	1.452550	63.364000
34.101909	1.433643	63.735000
34.126381	1.431692	63.780000
34.150784	1.425964	63.826000
34.176016	1.422188	63.872000
34.200745	1.414746	63.918000
34.226120	1.405940	63.963000
34.251306	1.400121	64.010000
34.276012	1.394130	64.056000
34.300534	1.393078	64.102000
34.325432	1.385217	64.148000
34.350550	1.380880	64.195000
34.375590	1.370319	64.241000
34.400907	1.362585	64.287000
34.426201	1.359081	64.333000
34.451295	1.351635	64.379000
34.476681	1.347457	64.426000
34.559094	1.341586	64.471000
34.584772	1.331671	64.627000
34.783850	1.309285	64.673000
34.808933	1.307245	65.042000
34.834085	1.304571	65.087000
34.859283	1.299390	65.132000
34.884289	1.293914	65.179000
34.908764	1.288886	65.225000
34.933394	1.279335	65.270000
34.958038	1.274438	65.317000
34.983109	1.270542	65.363000
35.007842	1.265943	65.409000
35.033071	1.269275	65.454000
35.058115	1.266671	65.500000
35.154089	1.265746	65.546000
35.178999	1.267675	65.723000
35.262664	1.274671	65.769000
35.287781	1.276080	65.925000
35.312449	1.280076	65.971000
35.337785	1.280461	66.016000
35.362657	1.284009	66.063000
35.387797	1.286473	66.109000
35.413675	1.283469	66.156000
35.438404	1.284556	66.202000
35.463348	1.280774	66.248000
35.487801	1.281849	66.295000
35.512961	1.277357	66.341000
35.537893	1.275513	66.387000
35.563406	1.270331	66.433000
35.588869	1.271467	66.480000
35.613764	1.266438	66.526000
35.639023	1.258215	66.571000
35.663856	1.250896	66.618000
35.749914	1.246110	66.663000
35.774087	1.229489	66.823000
35.858309	1.229024	66.869000
35.883203	1.226996	67.024000
35.908443	1.229348	67.070000
35.933411	1.230170	67.116000
35.958221	1.232886	67.161000
35.982174	1.237040	67.207000
36.006726	1.236920	67.253000
36.031221	1.247469	67.298000
36.056431	1.255874	67.344000
36.081321	1.261725	67.390000
36.106469	1.265954	67.434000
36.130910	1.275484	67.480000
36.154544	1.283269	67.526000
36.179351	1.289830	67.571000
36.204472	1.297413	67.617000
36.229420	1.300425	67.663000
36.254349	1.304227	67.709000
36.345017	1.305758	67.754000
36.370077	1.313818	67.924000
36.454418	1.322355	67.969000
36.479608	1.327942	68.124000
36.504172	1.336104	68.169000
36.528790	1.342630	68.215000
36.552790	1.352863	68.262000
36.577811	1.364587	68.306000
36.602486	1.374051	68.353000
36.627092	1.386062	68.398000
36.652425	1.406937	68.444000
36.677004	1.423448	68.489000
36.701188	1.440772	68.535000
36.725671	1.454599	68.580000
36.750746	1.473820	68.626000
36.775425	1.490827	68.672000
36.800450	1.507692	68.717000
36.825591	1.530537	68.763000
36.850278	1.546531	68.809000
37.055845	1.566278	68.854000
37.080478	1.701056	69.235000
37.105752	1.718769	69.281000
37.130566	1.734767	69.328000
37.155879	1.755422	69.374000
37.181438	1.772282	69.420000
37.206498	1.785665	69.467000
37.231711	1.800560	69.513000
37.255630	1.813831	69.559000
37.280263	1.824998	69.605000
37.305853	1.838617	69.651000
37.330636	1.848131	69.697000
37.356022	1.856782	69.744000
37.381446	1.862428	69.790000
37.406510	1.869688	69.836000
37.431374	1.870173	69.882000
37.455934	1.873889	69.928000
37.539791	1.878500	69.973000
37.753694	1.915090	70.129000
37.778393	1.919089	70.522000
37.804013	1.922998	70.568000
37.828074	1.923103	70.614000
37.852715	1.921546	70.661000
37.878597	1.922380	70.706000
37.903314	1.921060	70.752000
37.928055	1.922532	70.798000
37.952915	1.920237	70.845000
37.978758	1.920176	70.891000
38.003138	1.919150	70.937000
38.027356	1.916298	70.983000
38.053077	1.916693	71.028000
38.136592	1.911404	71.076000
38.233922	1.898802	71.230000
38.259239	1.895450	71.410000
38.284698	1.890620	71.456000
38.310157	1.889584	71.503000
38.335436	1.884650	71.549000
38.360134	1.885717	71.596000
38.384771	1.883685	71.642000
38.410250	1.881056	71.687000
38.434664	1.881319	71.734000
38.459316	1.881840	71.780000
38.484614	1.883462	71.826000
38.509989	1.886167	71.873000
38.535090	1.881369	71.919000
38.559808	1.882103	71.965000
38.585479	1.883189	72.011000
38.610135	1.881759	72.058000
38.635221	1.881870	72.104000
38.728548	1.880398	72.149000
38.753692	1.883604	72.323000
38.838318	1.880010	72.370000
38.863808	1.875788	72.525000
38.888675	1.878053	72.571000
38.913820	1.875288	72.617000
38.938149	1.874560	72.664000
38.962460	1.879362	72.710000
38.988126	1.880000	72.757000
39.013378	1.883932	72.802000
39.037953	1.887436	72.849000
39.063397	1.895420	72.895000
39.089025	1.903159	72.941000
39.114461	1.909575	72.988000
39.138780	1.918573	73.034000
39.164508	1.929478	73.080000
39.188411	1.942839	73.127000
39.213244	1.953683	73.173000
39.238503	1.967555	73.219000
39.324216	1.981578	73.265000
39.349721	2.030895	73.423000
39.434216	2.079533	73.470000
39.459456	2.090960	73.625000
39.483955	2.106193	73.671000
39.508173	2.120964	73.717000
39.533636	2.136537	73.764000
39.559092	2.150722	73.810000
39.584497	2.165779	73.857000
39.609061	2.175673	73.903000
39.634485	2.188105	73.949000
39.659799	2.200200	73.995000
39.685073	2.212447	74.041000
39.709918	2.222957	74.088000
39.734324	2.231699	74.134000
39.758969	2.240960	74.180000
39.784332	2.251430	74.225000
39.810072	2.260782	74.273000
39.835162	2.270994	74.319000
40.034866	2.281201	74.365000
40.060679	2.363554	74.736000
40.085981	2.375505	74.782000
40.111002	2.383194	74.829000
40.135950	2.394706	74.875000
40.161655	2.407318	74.921000
40.185431	2.419016	74.967000
40.209723	2.432454	75.012000
40.235362	2.447144	75.059000
40.259823	2.459324	75.105000
40.285439	2.471237	75.150000
40.310852	2.483707	75.196000
40.335562	2.501460	75.243000
40.360165	2.516568	75.289000
40.384610	2.538369	75.335000
40.410276	2.555400	75.381000
40.434740	2.576420	75.428000
40.519159	2.594996	75.474000
40.732048	2.814932	75.629000
40.756485	2.835972	76.022000
40.781510	2.856624	76.068000
40.807496	2.879896	76.115000
40.831656	2.898342	76.160000
40.857630	2.918700	76.207000
40.883024	2.936291	76.254000
40.908214	2.953233	76.300000
40.932709	2.970697	76.346000
40.957384	2.983846	76.392000
40.983059	3.000808	76.438000
41.006966	3.014841	76.485000
41.032460	3.030796	76.531000
41.116609	3.044578	76.577000
41.212771	3.130232	76.732000
41.237673	3.147839	76.909000
41.262994	3.163334	76.955000
41.287712	3.181286	77.002000
41.312852	3.192277	77.048000
41.337596	3.212382	77.094000
41.362214	3.229585	77.141000
41.387815	3.245606	77.187000
41.412975	3.265039	77.233000
41.437754	3.279063	77.279000
41.463079	3.294746	77.325000
41.488795	3.307270	77.372000
41.513751	3.320268	77.418000
41.538135	3.328613	77.464000
41.563213	3.334665	77.511000
41.588538	3.346498	77.557000
41.613290	3.356674	77.604000
41.707893	3.367982	77.650000
41.732945	3.432326	77.823000
41.817059	3.514249	77.870000
41.841566	3.539319	78.024000
41.865511	3.564267	78.070000
41.890698	3.587440	78.116000
41.916368	3.610549	78.162000
41.940444	3.636681	78.208000
41.965319	3.658929	78.253000
41.991090	3.682933	78.299000
42.014732	3.701839	78.345000
42.038889	3.717122	78.390000
42.064067	3.733120	78.436000
42.089265	3.751473	78.481000
42.113683	3.767400	78.528000
42.138808	3.782260	78.573000
42.164851	3.800868	78.620000
42.189646	3.814150	78.666000
42.214475	3.834747	78.713000
42.304018	3.855187	78.758000
42.328367	3.936428	78.923000
42.412331	4.018499	78.969000
42.436811	4.041344	79.124000
42.462685	4.067997	79.171000
42.487733	4.096823	79.217000
42.512593	4.121109	79.264000
42.537464	4.146638	79.310000
42.562835	4.167405	79.356000
42.587299	4.193422	79.401000
42.610833	4.208722	79.446000
42.636308	4.230466	79.492000
42.661271	4.251971	79.538000
42.685908	4.270684	79.584000
42.710645	4.289894	79.630000
42.736635	4.306861	79.676000
42.761049	4.323210	79.723000
42.786431	4.334833	79.769000
42.811087	4.350304	79.815000
43.014538	4.365098	79.860000
43.039067	4.475779	80.235000
43.064296	4.488141	80.281000
43.087918	4.500936	80.327000
43.112709	4.514939	80.373000
43.137965	4.531233	80.419000
43.163785	4.546955	80.465000
43.188337	4.561576	80.512000
43.213301	4.574643	80.557000
43.238472	4.590496	80.603000
43.262433	4.610703	80.648000
43.286251	4.632587	80.694000
43.311726	4.661461	80.739000
43.336328	4.689259	80.785000
43.361342	4.715272	80.831000
43.386813	4.744493	80.876000
43.411446	4.771015	80.922000
43.494669	4.804526	80.968000
43.519587	4.900757	81.123000
43.718465	5.134345	81.168000
43.744343	5.158879	81.538000
43.769376	5.183578	81.584000
43.794305	5.209352	81.630000
43.819560	5.232814	81.676000
43.845008	5.256034	81.723000
43.868339	5.276300	81.768000
43.893099	5.294222	81.814000
43.918627	5.314306	81.860000
43.942745	5.336647	81.905000
43.968024	5.361520	81.951000
43.993571	5.389360	81.996000
44.018001	5.424474	82.042000
44.100782	5.458131	82.088000
44.191213	5.715199	82.244000
44.215738	5.763897	82.409000
44.240656	5.817914	82.454000
44.264947	5.863963	82.500000
44.290253	5.915323	82.547000
44.316130	5.964748	82.593000
44.340971	6.012151	82.639000
44.366211	6.060332	82.686000
44.391371	6.106845	82.732000
44.416246	6.154649	82.778000
44.440153	6.193792	82.823000
44.465174	6.242183	82.870000
44.490472	6.283092	82.916000
44.515259	6.322577	82.962000
44.540541	6.360141	83.008000
44.566104	6.396579	83.055000
44.591071	6.436784	83.101000
44.686365	6.477776	83.147000
44.712320	6.608127	83.324000
44.795632	6.752481	83.370000
44.820691	6.798087	83.526000
44.846208	6.845719	83.573000
44.870738	6.891865	83.619000
44.895774	6.940237	83.665000
44.921575	6.985627	83.711000
44.946958	7.031909	83.757000
44.971349	7.078854	83.803000
44.996554	7.128509	83.849000
45.021844	7.178148	83.896000
45.046869	7.226086	83.943000
45.072232	7.276050	83.989000
45.096962	7.323909	84.035000
45.121848	7.374219	84.081000
45.147265	7.425461	84.127000
45.173112	7.476218	84.174000
45.197907	7.529098	84.219000
45.283282	7.577391	84.265000
45.307484	7.738979	84.424000
45.392717	7.873834	84.470000
45.417508	7.907694	84.626000
45.443117	7.938307	84.673000
45.468015	7.971723	84.719000
45.493559	8.008428	84.765000
45.518272	8.049190	84.811000
45.542518	8.086485	84.856000
45.567481	8.123644	84.903000
45.591619	8.162976	84.949000
45.616928	8.203701	84.994000
45.642322	8.244726	85.041000
45.668027	8.287895	85.087000
45.692360	8.332534	85.133000
45.717501	8.380759	85.179000
45.742533	8.428678	85.225000
45.766121	8.474767	85.271000
45.791899	8.519665	85.317000
45.993913	8.570041	85.363000
46.017728	8.947857	85.735000
46.042499	8.984600	85.782000
46.068239	9.018763	85.828000
46.092930	9.047899	85.874000
46.118300	9.074851	85.920000
46.143644	9.108735	85.966000
46.168700	9.139864	86.013000
46.193560	9.175658	86.059000
46.217993	9.210099	86.104000
46.242711	9.250478	86.150000
46.267498	9.288554	86.196000
46.292584	9.326631	86.243000
46.318885	9.360385	86.288000
46.343683	9.400686	86.336000
46.368581	9.438819	86.382000
46.394133	9.473454	86.428000
46.476073	9.510350	86.474000
46.689988	9.933841	86.629000
46.715585	9.979871	87.022000
46.740779	10.033707	87.068000
46.765028	10.081490	87.115000
46.790265	10.130832	87.161000
46.814829	10.182628	87.207000
46.839550	10.237087	87.253000
46.864495	10.290944	87.298000
46.889965	10.347427	87.345000
46.914898	10.404255	87.391000
46.939973	10.458895	87.437000
46.965893	10.518011	87.483000
46.990611	10.576220	87.529000
47.074107	10.636641	87.575000
47.171045	11.050728	87.731000
47.195778	11.123591	87.909000
47.221218	11.198174	87.956000
47.246366	11.271905	88.002000
47.271042	11.347813	88.048000
47.296474	11.418082	88.095000
47.322090	11.485282	88.141000
47.347085	11.548933	88.188000
47.371687	11.609343	88.234000
47.396758	11.668707	88.281000
47.421764	11.727289	88.326000
47.446213	11.787675	88.373000
47.471949	11.848057	88.419000
47.496920	11.914878	88.466000
47.522041	11.975907	88.511000
47.547093	12.041530	88.557000
47.572464	12.107272	88.603000
47.665583	12.176232	88.648000
47.689947	12.456768	88.823000
47.774235	12.702989	88.869000
47.799886	12.770423	89.025000
47.825722	12.836896	89.072000
47.851258	12.907415	89.118000
47.875499	12.978052	89.165000
47.900935	13.066072	89.211000
47.925872	13.158126	89.258000
47.950140	13.255770	89.304000
47.975150	13.353613	89.349000
48.000932	13.450669	89.396000
48.026006	13.548264	89.443000
48.050989	13.648694	89.490000
48.077224	13.741144	89.535000
48.102215	13.839353	89.582000
48.126268	13.935137	89.628000
48.150690	14.037119	89.673000
48.175465	14.135786	89.719000
48.261128	14.237106	89.765000
48.286272	14.571428	89.923000
48.370752	14.904527	89.969000
48.396518	15.015019	90.125000
48.421297	15.135555	90.171000
48.445393	15.268750	90.217000
48.469803	15.403904	90.263000
48.495308	15.541117	90.309000
48.519887	15.676800	90.355000
48.545385	15.808540	90.401000
48.570936	15.939216	90.448000
48.595281	16.067122	90.493000
48.621109	16.200437	90.540000
48.646011	16.326582	90.586000
48.669673	16.459617	90.632000
48.694290	16.587604	90.678000
48.719830	16.719736	90.724000
48.744809	16.847845	90.770000
48.769665	16.970579	90.815000
48.971951	17.089823	90.861000
48.997257	17.899527	91.235000
49.021709	17.997024	91.281000
49.046719	18.099365	91.327000
49.071855	18.211011	91.372000
49.096008	18.332297	91.417000
49.120081	18.455430	91.463000
49.145459	18.585510	91.509000
49.169524	18.720774	91.555000
49.195206	18.857977	91.601000
49.219827	18.999304	91.647000
49.245060	19.141496	91.691000
49.268095	19.279560	91.737000
49.293285	19.422349	91.783000
49.318210	19.566595	91.829000
49.342859	19.715110	91.874000
49.367980	19.867522	91.920000
49.452955	20.021617	91.965000
49.477730	20.542782	92.123000
49.677681	21.640802	92.168000
49.700654	21.769710	92.536000
49.726113	21.900675	92.582000
49.750766	22.026896	92.628000
49.775652	22.154253	92.673000
49.800639	22.278869	92.719000
49.825714	22.404090	92.765000
49.850216	22.530600	92.810000
49.873874	22.654618	92.856000
49.899218	22.782313	92.901000
49.923882	22.917980	92.947000
49.948818	23.053834	92.993000
49.974001	23.196427	93.039000
50.056218	23.348813	93.084000
50.149184	24.338931	93.238000
50.174723	24.509697	93.410000
50.199287	24.682184	93.456000
50.224904	24.857019	93.502000
50.250282	25.034259	93.548000
50.274059	25.215845	93.595000
50.299391	25.390838	93.640000
50.324374	25.563778	93.687000
50.349172	25.735527	93.732000
50.374585	25.914795	93.779000
50.399941	26.091596	93.826000
50.425969	26.271304	93.872000
50.450129	26.452215	93.917000
50.475300	26.628904	93.965000
50.500648	26.804259	94.011000
50.524851	26.972727	94.058000
50.549845	27.138473	94.104000
50.644152	27.305468	94.150000
50.669042	27.831677	94.324000
50.754179	28.278295	94.369000
50.779423	28.419318	94.526000
50.804567	28.557288	94.572000
50.830003	28.688792	94.618000
50.853680	28.831785	94.664000
50.878328	28.969770	94.711000
50.904755	29.103827	94.757000
50.929392	29.236251	94.804000
50.954179	29.377076	94.850000
50.979431	29.527136	94.896000
51.005274	29.686526	94.942000
51.030111	29.851420	94.988000
51.053772	30.016968	95.034000
51.078836	30.181040	95.080000
51.103457	30.351237	95.126000
51.128705	30.519345	95.172000
51.154164	30.692945	95.217000
51.240204	30.870213	95.264000
51.361222	31.482647	95.423000
51.386085	32.327087	95.646000
51.411230	32.527116	95.693000
51.435982	32.730745	95.738000
51.460008	32.924394	95.784000
51.484849	33.107380	95.830000
51.510692	33.282829	95.877000
51.535905	33.466797	95.923000
51.560515	33.647126	95.969000
51.585702	33.835257	96.015000
51.611368	34.017653	96.061000
51.635821	34.207015	96.108000
51.661249	34.394631	96.154000
51.685948	34.588945	96.200000
51.710535	34.785333	96.247000
51.735810	34.979149	96.293000
51.761192	35.163120	96.340000
51.959775	35.347243	96.386000
51.985019	36.114696	96.753000
52.010528	36.522556	96.799000
52.035702	36.842200	96.845000
52.059675	37.110220	96.891000
52.084608	37.346549	96.938000
52.109882	37.563289	96.984000
52.134335	37.772489	97.031000
52.159591	37.968169	97.077000
52.185530	38.150618	97.123000
52.210351	38.325004	97.168000
52.235684	38.477711	97.216000
52.260647	38.616991	97.261000
52.285645	38.761170	97.308000
52.310697	38.908965	97.355000
52.335400	39.060948	97.400000
52.431139	39.213988	97.448000
52.455019	39.828512	97.624000
52.655923	41.059755	97.670000
