Sample	2mm tape 
date	08/01/2025
	
Temperature (K)	77.00
Angle (deg.)	0.000000
field / T	0.150000
	
		
Approx. trace time (s)	120.0	
		
Current / A	V1  -sample/ uV	time/s
-0.016283	3.002025	0.000000
-0.016111	2.993591	0.045000
-0.016044	2.988186	0.090000
-0.016123	2.986454	0.136000
-0.016074	2.983077	0.183000
-0.016056	2.979681	0.228000
-0.016007	2.976406	0.275000
-0.016044	2.973265	0.321000
-0.015952	2.969551	0.367000
-0.017584	2.965569	0.414000
-0.017112	2.929364	0.780000
-0.018001	2.924640	0.827000
-0.017192	2.921224	0.872000
-0.018216	2.917685	0.919000
-0.017069	2.915688	0.965000
-0.018069	2.910068	1.011000
-0.017063	2.905632	1.058000
-0.018498	2.901131	1.104000
0.003815	2.896930	1.150000
0.028475	2.892175	1.196000
0.054370	2.887502	1.243000
0.078293	2.884333	1.289000
0.104546	2.880947	1.336000
0.128457	2.876827	1.382000
0.153550	2.872624	1.429000
0.177925	2.866875	1.475000
0.263291	2.860722	1.521000
0.289133	2.838618	1.675000
0.487904	2.780276	1.721000
0.512948	2.775767	2.089000
0.537825	2.770439	2.136000
0.562269	2.765444	2.182000
0.586780	2.763504	2.228000
0.611632	2.759434	2.274000
0.637031	2.754385	2.320000
0.662167	2.749239	2.366000
0.687536	2.742703	2.413000
0.712617	2.736925	2.459000
0.737615	2.728676	2.505000
0.761837	2.717343	2.551000
0.848796	2.709316	2.597000
0.872707	2.692868	2.756000
0.960304	2.661401	2.803000
0.985591	2.652783	2.964000
1.010438	2.649811	3.011000
1.035777	2.645585	3.056000
1.060773	2.644751	3.103000
1.085983	2.642997	3.149000
1.111495	2.636805	3.194000
1.136465	2.630315	3.241000
1.161632	2.621318	3.288000
1.185801	2.613862	3.334000
1.210470	2.604834	3.380000
1.235469	2.593225	3.426000
1.260421	2.585256	3.472000
1.286048	2.579275	3.518000
1.311095	2.571896	3.565000
1.336525	2.565192	3.611000
1.361621	2.559944	3.657000
1.444386	2.553412	3.703000
1.469443	2.524047	3.857000
1.556069	2.498303	3.904000
1.581370	2.492906	4.064000
1.606810	2.488905	4.111000
1.632031	2.487979	4.156000
1.656653	2.483746	4.203000
1.681880	2.483624	4.249000
1.706875	2.479477	4.295000
1.731422	2.476078	4.340000
1.755954	2.473706	4.388000
1.780925	2.473182	4.434000
1.806728	2.473394	4.480000
1.831887	2.475221	4.526000
1.857078	2.479315	4.572000
1.882040	2.484922	4.617000
1.907329	2.491277	4.664000
1.932163	2.497817	4.711000
1.956292	2.497116	4.757000
2.040670	2.501608	4.802000
2.065604	2.518228	4.958000
2.152627	2.531103	5.004000
2.177352	2.529801	5.164000
2.202813	2.531123	5.210000
2.227600	2.533991	5.255000
2.251641	2.534244	5.302000
2.276544	2.536515	5.348000
2.301349	2.540284	5.395000
2.326552	2.544797	5.440000
2.351983	2.548224	5.486000
2.377010	2.547240	5.533000
2.402568	2.547058	5.579000
2.427410	2.545922	5.625000
2.451936	2.541360	5.671000
2.476189	2.535877	5.718000
2.501175	2.534051	5.764000
2.527066	2.534762	5.810000
2.552067	2.534782	5.855000
2.750754	2.532471	5.903000
2.776016	2.506464	6.269000
2.801416	2.506998	6.315000
2.826219	2.504304	6.362000
2.851135	2.497878	6.408000
2.875309	2.495117	6.453000
2.900092	2.494451	6.500000
2.925662	2.495465	6.547000
2.950641	2.497126	6.592000
2.976060	2.497036	6.639000
3.000883	2.495627	6.685000
3.026133	2.494936	6.730000
3.050729	2.490203	6.777000
3.075125	2.485256	6.823000
3.100187	2.480744	6.869000
3.125189	2.475372	6.915000
3.150310	2.471945	6.961000
3.234682	2.468225	7.007000
3.259548	2.467333	7.162000
3.458742	2.446865	7.208000
3.483952	2.444331	7.577000
3.508579	2.441025	7.622000
3.533307	2.441458	7.669000
3.558702	2.444371	7.716000
3.583654	2.445269	7.762000
3.608694	2.445401	7.808000
3.634136	2.445618	7.854000
3.659519	2.442917	7.900000
3.684747	2.441308	7.947000
3.710161	2.439258	7.993000
3.735014	2.437991	8.040000
3.826554	2.433429	8.087000
3.851929	2.422571	8.256000
3.939319	2.409585	8.303000
3.964550	2.405213	8.464000
3.989599	2.401827	8.511000
4.014484	2.400225	8.556000
4.040010	2.403511	8.603000
4.065140	2.407862	8.649000
4.089821	2.411299	8.695000
4.113899	2.410589	8.741000
4.139702	2.406046	8.788000
4.164854	2.419043	8.834000
4.190014	2.398708	8.880000
4.215401	2.396489	8.927000
4.240170	2.393168	8.973000
4.265484	2.389195	9.019000
4.290574	2.385187	9.065000
4.315674	2.379571	9.112000
4.339779	2.376882	9.158000
4.423529	2.375300	9.205000
4.449418	2.361844	9.359000
4.534954	2.346573	9.405000
4.560882	2.343581	9.565000
4.585570	2.338820	9.610000
4.609935	2.332057	9.656000
4.634238	2.329286	9.702000
4.659389	2.323327	9.748000
4.684525	2.320319	9.794000
4.709458	2.316594	9.841000
4.735378	2.313101	9.887000
4.760250	2.310705	9.933000
4.785454	2.310290	9.979000
4.810783	2.313232	10.026000
4.835485	2.314056	10.072000
4.859859	2.316442	10.118000
4.884675	2.315649	10.165000
4.910358	2.315244	10.210000
4.935189	2.314840	10.257000
5.019561	2.311873	10.303000
5.044307	2.320809	10.457000
5.131590	2.321082	10.504000
5.156433	2.318393	10.664000
5.181260	2.320340	10.711000
5.205660	2.321988	10.757000
5.230593	2.321335	10.803000
5.256237	2.322993	10.849000
5.281183	2.321032	10.896000
5.306109	2.320582	10.941000
5.331772	2.320819	10.987000
5.356866	2.319192	11.034000
5.382065	2.317924	11.081000
5.406533	2.321775	11.127000
5.431384	2.324646	11.173000
5.456097	2.327917	11.220000
5.481178	2.329873	11.265000
5.506588	2.331905	11.312000
5.531730	2.335893	11.356000
5.730492	2.332910	11.403000
5.755094	2.321765	11.770000
5.779623	2.327315	11.815000
5.803844	2.335822	11.862000
5.828745	2.342474	11.907000
5.854667	2.350860	11.954000
5.879367	2.356810	12.001000
5.904551	2.361591	12.046000
5.929580	2.365797	12.092000
5.955088	2.373045	12.139000
5.979833	2.378273	12.185000
6.004707	2.379025	12.231000
6.029119	2.382609	12.277000
6.053913	2.389626	12.323000
6.079297	2.398507	12.369000
6.104568	2.403562	12.416000
6.129833	2.408318	12.462000
6.213948	2.414966	12.508000
6.238036	2.433595	12.663000
6.437239	2.458005	12.709000
6.462211	2.459391	13.077000
6.486930	2.462016	13.123000
6.512182	2.467493	13.169000
6.537595	2.472066	13.215000
6.562787	2.476911	13.262000
6.587157	2.482913	13.307000
6.612344	2.485305	13.353000
6.636608	2.485536	13.399000
6.661155	2.484779	13.445000
6.686818	2.484810	13.491000
6.712182	2.483725	13.538000
6.805915	2.486157	13.584000
6.831183	2.492694	13.756000
6.918120	2.498473	13.803000
6.943851	2.500102	13.965000
6.969616	2.499829	14.011000
6.993696	2.498937	14.057000
7.018486	2.497337	14.103000
7.042757	2.495206	14.149000
7.068611	2.495378	14.196000
7.093708	2.495247	14.243000
7.118292	2.498250	14.289000
7.143927	2.497276	14.335000
7.169029	2.500102	14.381000
7.194797	2.501066	14.428000
7.219753	2.501515	14.474000
7.244257	2.504302	14.521000
7.268807	2.506745	14.566000
7.293574	2.509178	14.613000
7.319036	2.513967	14.659000
7.403459	2.517587	14.705000
7.428966	2.533318	14.860000
7.514640	2.546375	14.905000
7.539861	2.545300	15.065000
7.564555	2.545547	15.111000
7.588860	2.546426	15.157000
7.614843	2.547899	15.204000
7.639267	2.548686	15.250000
7.664765	2.549500	15.296000
7.689833	2.553522	15.342000
7.715113	2.554376	15.387000
7.740255	2.557793	15.434000
7.765196	2.558918	15.481000
7.790100	2.559872	15.528000
7.814359	2.559588	15.573000
7.839499	2.559452	15.619000
7.864469	2.559422	15.665000
7.889776	2.555572	15.711000
7.914995	2.554285	15.757000
7.998856	2.553018	15.804000
8.023858	2.557813	15.959000
8.109597	2.567503	16.005000
8.134900	2.571571	16.165000
8.159945	2.575444	16.211000
8.185153	2.579586	16.257000
8.210560	2.582932	16.302000
8.235477	2.585345	16.349000
8.260663	2.588036	16.395000
8.285375	2.590832	16.441000
8.310383	2.592211	16.488000
8.335187	2.601527	16.534000
8.360076	2.606983	16.581000
8.385672	2.611259	16.627000
8.410338	2.610764	16.673000
8.435805	2.611798	16.720000
8.461045	2.615038	16.766000
8.486565	2.615670	16.813000
8.510995	2.621610	16.859000
8.709525	2.622524	16.904000
8.734284	2.637058	17.271000
8.759010	2.640570	17.318000
8.784077	2.638316	17.363000
8.809649	2.640398	17.410000
8.834829	2.639363	17.456000
8.859962	2.639939	17.503000
8.884938	2.645241	17.549000
8.910592	2.652459	17.595000
8.934807	2.659374	17.641000
8.959607	2.657342	17.687000
8.984029	2.660420	17.734000
9.009758	2.659688	17.780000
9.035360	2.655628	17.827000
9.060442	2.649638	17.873000
9.085731	2.645291	17.919000
9.110643	2.642976	17.966000
9.194247	2.641117	18.012000
9.218551	2.644073	18.167000
9.418488	2.636874	18.212000
9.443534	2.636722	18.581000
9.468669	2.635686	18.627000
9.494292	2.633866	18.673000
9.519195	2.633007	18.719000
9.544533	2.634018	18.767000
9.570045	2.631188	18.813000
9.595287	2.628205	18.859000
9.619916	2.625408	18.905000
9.644047	2.625269	18.952000
9.668992	2.627644	18.997000
9.694100	2.628377	19.043000
9.785349	2.630530	19.089000
9.809952	2.628286	19.256000
9.898054	2.615558	19.303000
9.922460	2.615305	19.465000
9.947055	2.615083	19.510000
9.972203	2.615842	19.556000
9.997109	2.614736	19.603000
10.022734	2.614716	19.649000
10.047606	2.607730	19.696000
10.072850	2.604954	19.742000
10.098275	2.604721	19.788000
10.122737	2.599547	19.834000
10.147618	2.592688	19.880000
10.172595	2.586859	19.927000
10.197437	2.585465	19.973000
10.223075	2.586411	20.020000
10.248002	2.585703	20.066000
10.272835	2.586351	20.112000
10.297890	2.584922	20.157000
10.381877	2.584118	20.204000
10.405892	2.587486	20.358000
10.492230	2.591335	20.404000
10.517612	2.594683	20.565000
10.543184	2.594873	20.611000
10.567890	2.599336	20.657000
10.593384	2.597492	20.703000
10.618423	2.594329	20.749000
10.643231	2.593873	20.795000
10.667956	2.594066	20.841000
10.692582	2.598911	20.887000
10.717634	2.600583	20.934000
10.742947	2.602874	20.980000
10.768068	2.604974	21.027000
10.793657	2.605866	21.073000
10.818267	2.608441	21.118000
10.843962	2.610489	21.165000
10.868723	2.612373	21.211000
10.893698	2.611665	21.257000
10.977080	2.614017	21.303000
11.002326	2.623078	21.459000
11.088587	2.627857	21.505000
11.113446	2.630000	21.664000
11.139086	2.632072	21.710000
11.164010	2.633918	21.756000
11.189282	2.640418	21.803000
11.213432	2.646215	21.849000
11.238082	2.655718	21.895000
11.262906	2.663816	21.940000
11.287948	2.670478	21.987000
11.312777	2.675553	22.032000
11.338375	2.677120	22.079000
11.363692	2.680133	22.124000
11.388760	2.679576	22.171000
11.414391	2.680275	22.218000
11.438851	2.683646	22.265000
11.463383	2.685036	22.311000
11.488673	2.689120	22.357000
11.687376	2.691607	22.403000
11.712402	2.723862	22.770000
11.737539	2.728725	22.816000
11.762964	2.730419	22.862000
11.787942	2.736040	22.908000
11.813128	2.740892	22.955000
11.837594	2.745381	23.001000
11.862241	2.747716	23.047000
11.887494	2.750658	23.093000
11.912247	2.755687	23.140000
11.937744	2.759044	23.186000
11.963033	2.762416	23.232000
11.988105	2.768001	23.278000
12.013634	2.775563	23.324000
12.038452	2.783524	23.371000
12.063453	2.788795	23.417000
12.088172	2.797911	23.464000
12.171942	2.808500	23.510000
12.197318	2.831434	23.666000
12.396950	2.905509	23.712000
12.422083	2.908971	24.080000
12.447361	2.913433	24.126000
12.472368	2.914287	24.172000
12.496905	2.915706	24.218000
12.522064	2.917815	24.265000
12.546432	2.919864	24.310000
12.571609	2.924310	24.357000
12.597101	2.928893	24.404000
12.622233	2.931125	24.450000
12.647262	2.934663	24.496000
12.672752	2.936893	24.542000
12.762807	2.938453	24.588000
12.787668	2.931135	24.756000
12.875099	2.930437	24.802000
12.900884	2.930291	24.965000
12.925967	2.930210	25.011000
12.951356	2.932281	25.057000
12.976284	2.934279	25.104000
13.001878	2.941622	25.150000
13.027318	2.948810	25.196000
13.051564	2.956870	25.242000
13.075989	2.965879	25.288000
13.100414	2.974222	25.335000
13.126362	2.982792	25.381000
13.151714	2.990374	25.428000
13.176990	2.996995	25.474000
13.201995	3.004759	25.521000
13.227609	3.015756	25.567000
13.253074	3.026810	25.613000
13.278056	3.033507	25.659000
13.360890	3.045318	25.705000
13.386267	3.078860	25.861000
13.471861	3.125702	25.907000
13.497103	3.140595	26.065000
13.522349	3.150637	26.111000
13.547160	3.161308	26.157000
13.572301	3.169285	26.203000
13.597522	3.175913	26.250000
13.621977	3.182988	26.297000
13.647283	3.186279	26.342000
13.671799	3.191668	26.388000
13.696891	3.199720	26.435000
13.722473	3.204992	26.481000
13.747737	3.212140	26.528000
13.772873	3.214910	26.574000
13.797873	3.221102	26.619000
13.823332	3.229447	26.667000
13.847794	3.238860	26.713000
13.872648	3.247614	26.759000
13.957057	3.258740	26.806000
13.981838	3.271951	26.960000
14.067503	3.283398	27.006000
14.092380	3.286956	27.165000
14.117773	3.291433	27.210000
14.141811	3.295154	27.256000
14.166952	3.298681	27.303000
14.192289	3.301432	27.349000
14.217270	3.306551	27.396000
14.242904	3.310533	27.442000
14.268015	3.313708	27.489000
14.293298	3.323640	27.535000
14.318264	3.326022	27.580000
14.343436	3.329411	27.627000
14.368144	3.334683	27.673000
14.392584	3.334305	27.720000
14.417792	3.333730	27.766000
14.443021	3.333220	27.812000
14.467957	3.332392	27.858000
14.666637	3.334114	27.904000
14.692429	3.354239	28.271000
14.717483	3.360582	28.318000
14.742466	3.359376	28.364000
14.767649	3.358396	28.411000
14.791777	3.356953	28.457000
14.816562	3.353314	28.503000
14.842061	3.353581	28.549000
14.867266	3.353073	28.595000
14.892046	3.353123	28.642000
14.917152	3.355455	28.688000
14.942627	3.356762	28.733000
14.967539	3.364212	28.780000
14.992865	3.372685	28.826000
15.017326	3.379010	28.871000
15.042366	3.384058	28.918000
15.067514	3.387515	28.964000
15.151643	3.392219	29.011000
15.177181	3.405276	29.166000
15.376923	3.416742	29.211000
15.402064	3.421607	29.580000
15.426580	3.428133	29.626000
15.450703	3.431651	29.672000
15.475739	3.433944	29.718000
15.500580	3.434999	29.764000
15.526090	3.438405	29.810000
15.551197	3.437662	29.856000
15.576662	3.439913	29.902000
15.601366	3.438889	29.949000
15.626366	3.439984	29.995000
15.651589	3.439702	30.041000
15.742541	3.434503	30.087000
15.767659	3.431289	30.256000
15.855302	3.431701	30.302000
15.880934	3.430032	30.465000
15.906125	3.428462	30.511000
15.931005	3.427569	30.558000
15.956123	3.425298	30.603000
15.980508	3.417610	30.650000
16.005527	3.408288	30.696000
16.030627	3.401778	30.742000
16.055745	3.396589	30.789000
16.080758	3.392899	30.835000
16.106125	3.388276	30.881000
16.131333	3.386177	30.927000
16.156814	3.383622	30.973000
16.182109	3.377090	31.020000
16.206477	3.370732	31.067000
16.231562	3.365325	31.113000
16.255951	3.363606	31.159000
16.340198	3.361985	31.205000
16.365485	3.362440	31.360000
16.451274	3.351725	31.406000
16.476989	3.346697	31.565000
16.502335	3.341171	31.612000
16.526507	3.332413	31.658000
16.551561	3.330051	31.704000
16.576732	3.330940	31.751000
16.601734	3.330183	31.797000
16.626693	3.330506	31.843000
16.652202	3.329290	31.890000
16.677245	3.326104	31.936000
16.702642	3.323499	31.982000
16.727105	3.316731	32.027000
16.751519	3.315399	32.073000
16.776298	3.308367	32.120000
16.801450	3.303785	32.165000
16.826461	3.297712	32.212000
16.851554	3.289905	32.258000
16.936010	3.284838	32.305000
16.960895	3.258335	32.458000
17.047205	3.257145	32.505000
17.071414	3.257732	32.664000
17.096310	3.256797	32.711000
17.121481	3.252940	32.756000
17.146694	3.247774	32.803000
17.171971	3.244443	32.848000
17.197063	3.240036	32.895000
17.222298	3.239510	32.941000
17.247388	3.235578	32.988000
17.271862	3.233975	33.034000
17.296946	3.233873	33.080000
17.321635	3.231397	33.127000
17.347267	3.229916	33.172000
17.372236	3.230199	33.219000
17.397290	3.231710	33.266000
17.422861	3.233631	33.311000
17.447540	3.236826	33.358000
17.646686	3.239884	33.404000
17.671469	3.262110	33.771000
17.696031	3.265265	33.817000
17.720648	3.270572	33.863000
17.745735	3.275963	33.910000
17.770848	3.278722	33.955000
17.795654	3.279595	34.001000
17.821144	3.283469	34.047000
17.846382	3.288062	34.094000
17.872003	3.288970	34.140000
17.896181	3.293069	34.186000
17.920904	3.294670	34.233000
17.945678	3.296648	34.279000
17.970972	3.301084	34.325000
17.996146	3.299776	34.371000
18.021511	3.305234	34.417000
18.046408	3.307958	34.463000
18.129620	3.312965	34.509000
18.154777	3.335521	34.664000
18.354080	3.369404	34.711000
18.379149	3.371868	35.079000
18.404086	3.371392	35.125000
18.429563	3.377160	35.172000
18.454684	3.387039	35.218000
18.479755	3.394962	35.264000
18.505006	3.402883	35.309000
18.529778	3.406451	35.355000
18.554570	3.409104	35.402000
18.579302	3.410523	35.448000
18.604321	3.410351	35.495000
18.629665	3.410801	35.542000
18.721709	3.407847	35.588000
18.747287	3.409165	35.757000
18.834273	3.423006	35.803000
18.859486	3.429647	35.965000
18.884273	3.430945	36.010000
18.908547	3.434240	36.057000
18.933563	3.437371	36.102000
18.958626	3.439783	36.150000
18.984362	3.439994	36.196000
19.008989	3.438436	36.241000
19.034105	3.439984	36.287000
19.058880	3.440535	36.332000
19.083148	3.441963	36.378000
19.107095	3.444718	36.424000
19.132341	3.444996	36.469000
19.157353	3.447863	36.515000
19.182812	3.451341	36.562000
19.208087	3.451713	36.608000
19.233079	3.452325	36.654000
19.317367	3.451624	36.701000
19.341961	3.459866	36.856000
19.430014	3.463182	36.902000
19.454520	3.463827	37.064000
19.479338	3.461283	37.111000
19.504551	3.460851	37.156000
19.529620	3.456238	37.202000
19.554699	3.453794	37.249000
19.580256	3.453081	37.295000
19.604941	3.452527	37.341000
19.630623	3.454950	37.387000
19.654570	3.456908	37.434000
19.679440	3.458941	37.480000
19.704893	3.460517	37.527000
19.729438	3.460208	37.573000
19.755226	3.459977	37.619000
19.780110	3.458610	37.665000
19.805564	3.458931	37.711000
19.830585	3.460699	37.757000
19.913664	3.463964	37.804000
19.938820	3.470461	37.959000
20.025097	3.453825	38.005000
20.050359	3.450428	38.165000
20.075900	3.446627	38.211000
20.100632	3.444466	38.257000
20.125979	3.442947	38.303000
20.150772	3.440221	38.350000
20.176150	3.438284	38.396000
20.200365	3.433742	38.442000
20.225524	3.431938	38.488000
20.250250	3.429840	38.535000
20.276110	3.427649	38.581000
20.300759	3.423909	38.627000
20.326329	3.421688	38.673000
20.351191	3.417827	38.720000
20.376220	3.410161	38.765000
20.401571	3.402518	38.812000
20.426299	3.398930	38.857000
20.624434	3.391733	38.904000
20.649152	3.354045	39.271000
20.674438	3.347974	39.317000
20.699726	3.340725	39.363000
20.724619	3.335460	39.410000
20.749905	3.330485	39.455000
20.775076	3.325890	39.502000
20.800082	3.321717	39.548000
20.824882	3.314864	39.594000
20.849742	3.310380	39.641000
20.874853	3.302780	39.687000
20.899711	3.301220	39.733000
20.925274	3.297753	39.780000
20.950514	3.292761	39.826000
20.975987	3.285613	39.872000
21.001265	3.278651	39.919000
21.026258	3.272909	39.965000
21.108722	3.263813	40.011000
21.133672	3.240425	40.165000
21.333020	3.220747	40.212000
21.358187	3.217314	40.579000
21.383859	3.210500	40.626000
21.408285	3.203049	40.672000
21.433730	3.199092	40.718000
21.458919	3.192703	40.764000
21.484220	3.187091	40.810000
21.508393	3.184034	40.857000
21.533642	3.179777	40.902000
21.558028	3.174581	40.949000
21.583589	3.169172	40.995000
21.608596	3.163500	41.041000
21.699995	3.156981	41.088000
21.724280	3.154821	41.256000
21.812759	3.152951	41.303000
21.837771	3.148983	41.464000
21.862821	3.145379	41.512000
21.887840	3.140279	41.558000
21.912552	3.137266	41.603000
21.937982	3.134522	41.649000
21.963430	3.132626	41.695000
21.989004	3.130362	41.742000
22.013532	3.128340	41.788000
22.038764	3.126373	41.835000
22.063693	3.122057	41.882000
22.088618	3.120045	41.928000
22.113269	3.119630	41.974000
22.127041	3.116991	42.021000
22.163860	3.113994	42.067000
22.188561	3.111042	42.112000
22.214129	3.110309	42.159000
22.297466	3.110769	42.205000
22.322209	3.108838	42.360000
22.408317	3.104724	42.405000
22.433179	3.101731	42.564000
22.458848	3.104774	42.611000
22.484155	3.105123	42.658000
22.509904	3.108879	42.705000
22.534572	3.114919	42.750000
22.559451	3.120727	42.796000
22.584270	3.122391	42.842000
22.608873	3.122674	42.888000
22.634224	3.123740	42.935000
22.659184	3.117204	42.981000
22.684240	3.119165	43.027000
22.709513	3.119782	43.073000
22.734826	3.121753	43.119000
22.759718	3.121733	43.165000
22.784250	3.122047	43.211000
22.809071	3.123376	43.258000
22.893055	3.125953	43.303000
22.918531	3.139925	43.459000
23.004630	3.151162	43.505000
23.030159	3.151420	43.665000
23.055706	3.154049	43.712000
23.080566	3.152168	43.758000
23.105558	3.153684	43.804000
23.130143	3.152861	43.850000
23.154560	3.155570	43.896000
23.179508	3.160757	43.942000
23.204827	3.163986	43.987000
23.230169	3.167414	44.034000
23.254844	3.165811	44.080000
23.280605	3.170532	44.127000
23.305232	3.170916	44.173000
23.329996	3.171351	44.219000
23.354387	3.173060	44.265000
23.379546	3.169264	44.311000
23.404351	3.167373	44.357000
23.603095	3.164320	44.403000
23.628258	3.160534	44.769000
23.653049	3.157956	44.816000
23.678679	3.151642	44.862000
23.703414	3.145723	44.908000
23.728360	3.139480	44.955000
23.752834	3.134492	45.000000
23.777895	3.131782	45.047000
23.803475	3.146699	45.094000
23.828725	3.141568	45.139000
23.853842	3.137448	45.186000
23.879059	3.133182	45.232000
23.904225	3.132676	45.278000
23.929440	3.131883	45.324000
23.953962	3.129254	45.371000
23.978508	3.123548	45.418000
24.003576	3.117275	45.464000
24.088142	3.110644	45.510000
24.113772	3.088240	45.666000
24.312620	3.055031	45.711000
24.337606	3.041687	46.079000
24.362581	3.044366	46.125000
24.387433	3.040667	46.171000
24.411896	3.033985	46.218000
24.437318	3.021422	46.264000
24.461999	3.013629	46.310000
24.487268	3.009889	46.356000
24.512950	3.004907	46.403000
24.537733	3.003571	46.449000
24.563141	2.999851	46.495000
24.587931	2.997549	46.542000
24.679138	2.995408	46.587000
24.704268	2.989705	46.756000
24.791572	2.977173	46.802000
24.817056	2.970158	46.965000
24.842133	2.966519	47.011000
24.867402	2.962106	47.057000
24.892142	2.960376	47.103000
24.917319	2.956858	47.149000
24.941484	2.954102	47.195000
24.966276	2.956056	47.241000
24.991221	2.953803	47.287000
25.016138	2.955864	47.333000
25.041407	2.958135	47.379000
25.066119	2.957563	47.425000
25.091463	2.952586	47.471000
25.116501	2.951292	47.517000
25.141127	2.954061	47.563000
25.165264	2.951613	47.609000
25.190541	2.950927	47.655000
25.275149	2.951532	47.702000
25.299901	2.948910	47.856000
25.387819	2.949590	47.903000
25.412802	2.948424	48.064000
25.438450	2.950256	48.111000
25.463277	2.948106	48.157000
25.487823	2.945401	48.204000
25.512712	2.947288	48.249000
25.537558	2.950513	48.296000
25.562658	2.952875	48.342000
25.588048	2.955712	48.389000
25.613548	2.960760	48.435000
25.638765	2.962424	48.481000
25.664282	2.963001	48.528000
25.689013	2.965948	48.574000
25.713896	2.962667	48.620000
25.739092	2.963631	48.667000
25.763671	2.961390	48.713000
25.788329	2.964076	48.759000
25.872828	2.967209	48.805000
25.897772	2.973977	48.960000
25.983725	2.979788	49.006000
26.008604	2.978289	49.165000
26.033612	2.978650	49.211000
26.058282	2.978582	49.257000
26.083439	2.979202	49.304000
26.108299	2.979978	49.350000
26.133981	2.978501	49.396000
26.159202	2.979857	49.443000
26.184187	2.980803	49.489000
26.209930	2.981715	49.535000
26.233979	2.982578	49.581000
26.259127	2.982502	49.627000
26.283228	2.981746	49.674000
26.308451	2.980984	49.720000
26.333628	2.978812	49.766000
26.358910	2.973817	49.812000
26.384014	2.970591	49.858000
26.582466	2.974690	49.903000
26.607791	2.955965	50.270000
26.632480	2.956979	50.316000
26.657413	2.961886	50.363000
26.681725	2.965191	50.409000
26.706790	2.965897	50.455000
26.732271	2.968527	50.502000
26.757586	2.971615	50.548000
26.782851	2.965614	50.595000
26.807951	2.962627	50.640000
26.833095	2.961582	50.687000
26.858381	2.958518	50.733000
26.882647	2.958967	50.779000
26.907375	2.954172	50.825000
26.932298	2.953844	50.871000
26.957415	2.949009	50.918000
26.982757	2.950533	50.964000
27.067525	2.951231	51.010000
27.092484	2.958398	51.166000
27.291083	2.956226	51.212000
27.316227	2.957071	51.580000
27.340800	2.956115	51.626000
27.366004	2.955642	51.672000
27.390756	2.956595	51.718000
27.416290	2.959180	51.765000
27.442149	2.957513	51.811000
27.466876	2.959645	51.857000
27.492479	2.959784	51.903000
27.517258	2.960366	51.950000
27.541817	2.964086	51.996000
27.565962	2.962465	52.042000
27.657718	2.965504	52.088000
27.682824	2.968249	52.256000
27.770559	2.969531	52.303000
27.796099	2.967887	52.465000
27.821197	2.966316	52.511000
27.846239	2.962444	52.557000
27.870073	2.959321	52.603000
27.895152	2.955672	52.650000
27.920840	2.948505	52.696000
27.945306	2.944754	52.742000
27.970796	2.939944	52.788000
27.995536	2.936679	52.834000
28.021257	2.937562	52.881000
28.045667	2.936892	52.927000
28.071303	2.939102	52.972000
28.095677	2.937643	53.019000
28.120327	2.934520	53.065000
28.145767	2.929178	53.111000
28.170316	2.922183	53.157000
28.255289	2.921961	53.203000
28.280518	2.908111	53.359000
28.366941	2.903023	53.405000
28.392129	2.900671	53.565000
28.416720	2.896422	53.612000
28.441181	2.894872	53.658000
28.466501	2.892121	53.704000
28.491630	2.890854	53.750000
28.517076	2.887014	53.797000
28.542141	2.882552	53.843000
28.567143	2.881507	53.889000
28.592618	2.881623	53.935000
28.617174	2.882329	53.981000
28.641168	2.882470	54.027000
28.666250	2.886498	54.073000
28.691634	2.884772	54.119000
28.716433	2.885201	54.166000
28.742101	2.889154	54.212000
28.766688	2.886059	54.258000
28.850878	2.884662	54.304000
28.874704	2.877050	54.458000
28.962077	2.892874	54.505000
28.986898	2.895337	54.665000
29.012029	2.896876	54.712000
29.037373	2.899596	54.758000
29.061996	2.901767	54.804000
29.087553	2.902857	54.850000
29.112484	2.903326	54.896000
29.137772	2.905426	54.941000
29.162152	2.903438	54.988000
29.186658	2.902543	55.034000
29.211729	2.907869	55.081000
29.236801	2.909045	55.127000
29.261906	2.909652	55.172000
29.286895	2.909217	55.219000
29.312809	2.907561	55.265000
29.337283	2.911407	55.311000
29.362425	2.914718	55.357000
29.561210	2.921067	55.404000
29.585856	2.936952	55.771000
29.610810	2.942351	55.818000
29.635658	2.947933	55.863000
29.661421	2.954071	55.910000
29.686344	2.964237	55.956000
29.711732	2.975603	56.003000
29.736763	2.984482	56.049000
29.761625	2.990583	56.095000
29.786492	2.995418	56.141000
29.810974	3.002314	56.186000
29.835757	3.011418	56.233000
29.861491	3.019069	56.280000
29.886398	3.028836	56.326000
29.911906	3.035553	56.372000
29.936848	3.042358	56.418000
29.962155	3.046289	56.464000
30.045054	3.050631	56.511000
30.069683	3.065589	56.666000
30.268660	3.085813	56.712000
30.293950	3.089169	57.079000
30.319327	3.089973	57.125000
30.344332	3.094289	57.171000
30.369369	3.095810	57.218000
30.393893	3.095163	57.263000
30.419021	3.094218	57.309000
30.443261	3.091403	57.355000
30.468101	3.094623	57.401000
30.493850	3.095406	57.448000
30.518658	3.097485	57.494000
30.543912	3.100401	57.540000
30.636528	3.102145	57.587000
30.661075	3.107730	57.756000
30.749116	3.109352	57.802000
30.773766	3.110500	57.965000
30.798594	3.107841	58.011000
30.823188	3.109579	58.057000
30.848707	3.110520	58.103000
30.873590	3.111485	58.149000
30.899076	3.114493	58.196000
30.924531	3.115271	58.242000
30.949445	3.117637	58.288000
30.974332	3.115893	58.335000
30.998738	3.118491	58.380000
31.023550	3.119264	58.427000
31.048617	3.117839	58.472000
31.073917	3.120094	58.519000
31.099326	3.125274	58.566000
31.124895	3.128510	58.612000
31.149703	3.132634	58.659000
31.233806	3.133099	58.705000
31.258402	3.137800	58.860000
31.344217	3.141425	58.905000
31.369542	3.144555	59.065000
31.394887	3.145519	59.112000
31.420329	3.151070	59.158000
31.445258	3.154750	59.204000
31.470779	3.156433	59.252000
31.495956	3.155508	59.297000
31.520729	3.154694	59.343000
31.545862	3.157550	59.389000
31.570368	3.156443	59.436000
31.595172	3.158096	59.482000
31.620506	3.163894	59.528000
31.645950	3.170713	59.574000
31.671190	3.178563	59.621000
31.695969	3.183962	59.667000
31.721352	3.191680	59.713000
31.746465	3.193717	59.760000
31.828839	3.198034	59.805000
31.854237	3.205727	59.960000
31.940430	3.213466	60.006000
31.965651	3.213719	60.165000
31.990357	3.212965	60.211000
32.016250	3.213597	60.258000
32.041243	3.215200	60.304000
32.066156	3.219779	60.349000
32.090438	3.225799	60.396000
32.115113	3.233037	60.442000
32.140463	3.241711	60.489000
32.165417	3.247130	60.535000
32.190851	3.250542	60.581000
32.215942	3.252989	60.626000
32.241479	3.254146	60.673000
32.266124	3.255020	60.720000
32.291960	3.254288	60.766000
32.315855	3.255783	60.813000
32.340373	3.255364	60.858000
32.539087	3.252473	60.905000
32.564277	3.244886	61.270000
32.589632	3.246392	61.317000
32.614676	3.251599	61.363000
32.639490	3.256836	61.410000
32.664780	3.259844	61.455000
32.689452	3.264166	61.502000
32.714569	3.266460	61.548000
32.739713	3.268121	61.595000
32.764692	3.268298	61.641000
32.790047	3.268481	61.688000
32.815553	3.269146	61.735000
32.840981	3.267649	61.781000
32.865553	3.270231	61.828000
32.891331	3.268081	61.873000
32.916010	3.268976	61.920000
32.940674	3.272684	61.965000
33.024228	3.274472	62.012000
33.049330	3.286843	62.167000
33.248308	3.327968	62.212000
33.273905	3.337548	62.580000
33.299729	3.346643	62.627000
33.324547	3.355753	62.673000
33.349876	3.364647	62.720000
33.374505	3.371824	62.766000
33.399307	3.378385	62.813000
33.424198	3.380575	62.859000
33.448977	3.384350	62.905000
33.474209	3.384255	62.952000
33.499538	3.389993	62.998000
33.525143	3.395248	63.044000
33.614367	3.395672	63.090000
33.639795	3.396535	63.257000
33.726811	3.394667	63.302000
33.752066	3.393788	63.465000
33.777671	3.390756	63.511000
33.803211	3.389145	63.557000
33.828401	3.391149	63.604000
33.853518	3.389145	63.651000
33.878712	3.392013	63.697000
33.903987	3.395652	63.743000
33.928136	3.399901	63.789000
33.952816	3.401067	63.836000
33.977864	3.401148	63.881000
34.003311	3.401783	63.928000
34.027987	3.397933	63.973000
34.053807	3.399461	64.019000
34.078774	3.401572	64.066000
34.103242	3.405720	64.112000
34.128505	3.411722	64.158000
34.211214	3.413049	64.205000
34.236754	3.424461	64.358000
34.323047	3.431794	64.405000
34.348683	3.437236	64.565000
34.373569	3.438372	64.611000
34.398468	3.440643	64.656000
34.423931	3.444513	64.703000
34.448087	3.445175	64.749000
34.473466	3.446796	64.796000
34.498099	3.448835	64.841000
34.523892	3.450534	64.888000
34.548652	3.450253	64.934000
34.573835	3.446179	64.980000
34.598687	3.449017	65.026000
34.623439	3.447648	65.072000
34.648134	3.445155	65.117000
34.671941	3.444424	65.163000
34.697077	3.446189	65.210000
34.721976	3.449227	65.255000
34.806448	3.448303	65.302000
34.831634	3.460352	65.456000
34.919390	3.452161	65.502000
34.944903	3.450802	65.665000
34.969613	3.451369	65.711000
34.993985	3.447770	65.757000
35.018311	3.448360	65.803000
35.043582	3.447902	65.849000
35.069245	3.449359	65.896000
35.093870	3.450575	65.941000
35.119387	3.450334	65.988000
35.144301	3.450304	66.034000
35.169787	3.451938	66.080000
35.195069	3.454795	66.127000
35.218884	3.454624	66.173000
35.243909	3.458848	66.219000
35.268776	3.463532	66.265000
35.294332	3.465521	66.311000
35.319280	3.470925	66.357000
35.518204	3.469019	66.404000
35.543787	3.462416	66.771000
35.568712	3.456571	66.817000
35.593929	3.456204	66.864000
35.618923	3.454694	66.910000
35.643291	3.455506	66.956000
35.668212	3.456632	67.003000
35.693456	3.454421	67.048000
35.718731	3.452454	67.095000
35.743645	3.451419	67.141000
35.769342	3.449278	67.186000
35.794125	3.448572	67.233000
35.819227	3.447123	67.279000
35.843376	3.448410	67.325000
35.867733	3.447891	67.371000
35.892857	3.447396	67.417000
35.918251	3.449388	67.464000
36.002185	3.449738	67.509000
36.027598	3.458293	67.664000
36.226892	3.481484	67.711000
36.251391	3.481142	68.078000
36.275182	3.485775	68.124000
36.300738	3.489111	68.169000
36.325597	3.496038	68.216000
36.351080	3.501835	68.262000
36.375889	3.511202	68.308000
36.401084	3.520473	68.354000
36.426009	3.524436	68.400000
36.450338	3.532730	68.446000
36.475190	3.537512	68.492000
36.500173	3.543032	68.538000
36.593431	3.546899	68.585000
36.618614	3.564955	68.756000
36.706286	3.581848	68.803000
36.731180	3.587443	68.965000
36.756812	3.591289	69.011000
36.781684	3.593979	69.057000
36.807177	3.598135	69.103000
36.830973	3.600005	69.149000
36.856009	3.602492	69.196000
36.881015	3.604918	69.242000
36.906482	3.610463	69.288000
36.931776	3.621265	69.335000
36.957523	3.622968	69.382000
36.982660	3.630116	69.428000
37.007819	3.632901	69.474000
37.032890	3.631926	69.521000
37.057604	3.635802	69.566000
37.081961	3.638330	69.613000
37.106148	3.641621	69.658000
37.190785	3.644638	69.705000
37.215833	3.652241	69.859000
37.302234	3.653488	69.905000
37.327509	3.655206	70.065000
37.353045	3.655197	70.112000
37.377209	3.658655	70.158000
37.401900	3.660737	70.204000
37.426437	3.662168	70.249000
37.452057	3.660312	70.296000
37.477459	3.664972	70.342000
37.502023	3.663426	70.387000
37.527786	3.663512	70.433000
37.552630	3.665266	70.480000
37.577551	3.669052	70.526000
37.601639	3.672312	70.572000
37.626814	3.672747	70.618000
37.652062	3.675633	70.664000
37.677186	3.677787	70.710000
37.702196	3.681320	70.756000
37.786188	3.681886	70.802000
37.810567	3.686355	70.956000
37.899380	3.691890	71.003000
37.923653	3.693401	71.166000
37.948082	3.694079	71.211000
37.973414	3.697734	71.257000
37.998670	3.699804	71.304000
38.023211	3.702419	71.350000
38.049354	3.705074	71.395000
38.074060	3.705074	71.442000
38.099296	3.702923	71.488000
38.123856	3.702004	71.535000
38.149289	3.694488	71.581000
38.173622	3.700571	71.627000
38.198897	3.709445	71.673000
38.224521	3.714069	71.720000
38.249923	3.721054	71.766000
38.274053	3.723365	71.812000
38.299435	3.728796	71.858000
38.498310	3.732673	71.904000
38.521925	3.746256	72.271000
38.547219	3.750687	72.317000
38.571902	3.752948	72.363000
38.596808	3.760942	72.409000
38.622321	3.764668	72.455000
38.647499	3.768772	72.501000
38.672179	3.775434	72.547000
38.697296	3.779427	72.593000
38.722509	3.783157	72.639000
38.746631	3.786229	72.685000
38.770969	3.787638	72.731000
38.797023	3.795289	72.778000
38.822479	3.799196	72.823000
38.846728	3.804683	72.870000
38.872932	3.808221	72.916000
38.897623	3.814422	72.963000
38.980762	3.817750	73.008000
39.005952	3.826152	73.163000
39.204362	3.835814	73.209000
39.230001	3.839851	73.577000
39.255169	3.849168	73.623000
39.280182	3.854529	73.670000
39.305418	3.858930	73.717000
39.331216	3.863220	73.763000
39.356340	3.867994	73.809000
39.381158	3.872698	73.855000
39.405826	3.873264	73.901000
39.429963	3.876944	73.947000
39.455177	3.880047	73.994000
39.480666	3.880371	74.039000
39.573713	3.881203	74.086000
39.597958	3.896122	74.256000
39.686464	3.926527	74.302000
39.711074	3.932031	74.465000
39.736353	3.937825	74.511000
39.761182	3.940782	74.557000
39.785680	3.945675	74.604000
39.810460	3.950629	74.650000
39.836241	3.951796	74.696000
39.861628	3.959227	74.742000
39.886192	3.962295	74.788000
39.911459	3.967673	74.835000
39.936856	3.972430	74.881000
39.961174	3.979638	74.928000
39.986722	3.988520	74.973000
40.011278	3.996192	75.020000
40.036246	4.001282	75.066000
40.061290	4.007545	75.113000
40.086472	4.013272	75.159000
40.170618	4.018529	75.205000
40.196092	4.037359	75.360000
40.281371	4.063502	75.405000
40.306504	4.069179	75.565000
40.331590	4.080224	75.611000
40.355881	4.087401	75.657000
40.381659	4.096409	75.704000
40.407222	4.106711	75.750000
40.432070	4.118326	75.797000
40.457311	4.132077	75.842000
40.483173	4.142806	75.889000
40.507526	4.154021	75.935000
40.531671	4.162872	75.981000
40.557030	4.173430	76.028000
40.582136	4.186126	76.074000
40.607061	4.197001	76.120000
40.632582	4.213163	76.166000
40.657795	4.224615	76.213000
40.683204	4.237394	76.259000
40.766381	4.252914	76.304000
40.790623	4.299642	76.459000
40.876916	4.342014	76.505000
40.902064	4.352784	76.665000
40.927488	4.368240	76.711000
40.952767	4.381316	76.758000
40.978287	4.395294	76.804000
41.003209	4.411165	76.850000
41.028537	4.425000	76.897000
41.054088	4.446443	76.944000
41.078088	4.460621	76.989000
41.102060	4.474765	77.036000
41.128088	4.491264	77.082000
41.153835	4.511073	77.129000
41.177823	4.527713	77.174000
41.203082	4.542888	77.221000
41.229106	4.560777	77.267000
41.253570	4.575146	77.313000
41.278426	4.591719	77.359000
41.477316	4.606094	77.405000
41.501611	4.725057	77.772000
41.526490	4.738093	77.818000
41.552161	4.748860	77.864000
41.577547	4.757850	77.911000
41.602399	4.767767	77.957000
41.628185	4.776221	78.004000
41.653121	4.786534	78.050000
41.677885	4.797175	78.096000
41.703141	4.808325	78.143000
41.727636	4.820072	78.189000
41.751585	4.833492	78.235000
41.776625	4.846448	78.281000
41.802684	4.856720	78.327000
41.827947	4.871454	78.373000
41.852960	4.887615	78.419000
41.878270	4.906434	78.466000
41.960329	4.921704	78.511000
41.985980	4.959432	78.666000
42.184970	5.039366	78.713000
42.209953	5.047214	79.081000
42.236054	5.053741	79.127000
42.260572	5.059742	79.173000
42.285270	5.066707	79.219000
42.310383	5.076621	79.265000
42.336027	5.083636	79.310000
42.360015	5.093886	79.357000
42.384529	5.103071	79.403000
42.409965	5.112500	79.449000
42.434540	5.125144	79.495000
42.459669	5.135211	79.541000
42.551851	5.150174	79.587000
42.576085	5.192236	79.756000
42.664560	5.235645	79.802000
42.689297	5.248388	79.964000
42.713277	5.263972	80.010000
42.738990	5.275850	80.056000
42.763788	5.287405	80.102000
42.789055	5.300907	80.148000
42.813973	5.313291	80.194000
42.839343	5.331115	80.240000
42.863569	5.346639	80.286000
42.887503	5.363465	80.332000
42.912916	5.382663	80.378000
42.937638	5.402826	80.423000
42.962294	5.422177	80.469000
42.988245	5.439837	80.515000
43.012909	5.460207	80.561000
43.037246	5.480331	80.607000
43.061864	5.498768	80.653000
43.147008	5.514627	80.699000
43.171949	5.565522	80.856000
43.259724	5.634008	80.903000
43.284688	5.651638	81.065000
43.310166	5.672930	81.111000
43.335272	5.689164	81.157000
43.360136	5.704718	81.203000
43.385322	5.724109	81.249000
43.410428	5.738995	81.295000
43.434024	5.758937	81.341000
43.458968	5.778492	81.387000
43.484704	5.796129	81.433000
43.509740	5.810526	81.479000
43.534243	5.824547	81.525000
43.560040	5.842648	81.571000
43.584704	5.856665	81.617000
43.608876	5.880988	81.663000
43.633897	5.902771	81.708000
43.658734	5.924555	81.755000
43.742933	5.943741	81.801000
43.768692	6.002532	81.956000
43.855888	6.055260	82.002000
43.881523	6.072411	82.165000
43.906691	6.093724	82.212000
43.931389	6.114232	82.257000
43.956568	6.134567	82.304000
43.981351	6.156945	82.350000
44.005054	6.174510	82.396000
44.030751	6.192728	82.442000
44.056153	6.208761	82.488000
44.081336	6.223167	82.534000
44.105938	6.241208	82.580000
44.131240	6.256104	82.626000
44.156076	6.272386	82.672000
44.180145	6.291407	82.718000
44.205477	6.309789	82.765000
44.231052	6.323901	82.811000
44.255343	6.343736	82.857000
44.454721	6.370382	82.904000
44.480241	6.579221	83.271000
44.505082	6.601508	83.317000
44.530022	6.627040	83.363000
44.556096	6.655300	83.410000
44.580349	6.685347	83.455000
44.604763	6.714239	83.502000
44.629673	6.744608	83.548000
44.654222	6.774351	83.594000
44.679827	6.801848	83.640000
44.705055	6.831410	83.687000
44.730699	6.856868	83.732000
44.754952	6.880793	83.779000
44.780311	6.902485	83.825000
44.806005	6.920287	83.872000
44.829781	6.939632	83.918000
44.854599	6.950860	83.963000
44.939205	6.955216	84.010000
44.964507	6.969350	84.165000
45.164841	7.097063	84.212000
45.189751	7.118050	84.580000
45.215110	7.138243	84.625000
45.239897	7.158208	84.672000
45.264077	7.178242	84.718000
45.288729	7.200284	84.764000
45.314319	7.221897	84.810000
45.339751	7.248455	84.856000
45.364515	7.276422	84.902000
45.389651	7.306470	84.949000
45.415733	7.341314	84.996000
45.441038	7.371462	85.043000
45.530754	7.404520	85.088000
45.556144	7.536020	85.256000
45.643378	7.662343	85.302000
45.669325	7.689925	85.465000
45.694546	7.718043	85.511000
45.718934	7.748094	85.558000
45.744838	7.776274	85.604000
45.769698	7.809620	85.650000
45.794758	7.841153	85.696000
45.819591	7.872351	85.743000
45.844781	7.909063	85.789000
45.868696	7.949790	85.835000
45.894051	7.995520	85.881000
45.919345	8.043135	85.927000
45.944527	8.096029	85.973000
45.969372	8.144998	86.019000
45.994455	8.184791	86.066000
46.020313	8.219208	86.112000
46.043709	8.250363	86.158000
46.127824	8.282742	86.204000
46.152811	8.408915	86.358000
46.240229	8.599651	86.405000
46.265542	8.659546	86.565000
46.289991	8.718885	86.612000
46.316099	8.778385	86.658000
46.340337	8.829629	86.704000
46.363948	8.861914	86.749000
46.389622	8.889265	86.795000
46.414186	8.916710	86.841000
46.438873	8.949190	86.886000
46.463564	8.982568	86.932000
46.489434	9.040192	86.978000
46.513449	9.099891	87.024000
46.537840	9.162640	87.071000
46.563457	9.226138	87.116000
46.588340	9.290242	87.163000
46.613664	9.336184	87.210000
46.639050	9.360068	87.256000
46.722977	9.380606	87.302000
46.747925	9.499524	87.456000
46.836066	9.679849	87.502000
46.860392	9.721991	87.665000
46.885467	9.755827	87.711000
46.910008	9.794775	87.757000
46.934452	9.830318	87.803000
46.960584	9.871099	87.849000
46.985601	9.912824	87.895000
47.010169	9.953878	87.941000
47.035790	9.995040	87.988000
47.061191	10.034402	88.034000
47.086105	10.083435	88.080000
47.110165	10.140714	88.127000
47.135306	10.209780	88.172000
47.160085	10.281700	88.219000
47.185002	10.352202	88.264000
47.210730	10.417335	88.311000
47.235509	10.481461	88.357000
47.434192	10.545733	88.403000
47.459232	11.108179	88.770000
47.483531	11.173160	88.816000
47.508291	11.236134	88.862000
47.533424	11.293607	88.908000
47.558630	11.351116	88.954000
47.583017	11.407185	89.000000
47.608691	11.463579	89.046000
47.633916	11.517039	89.092000
47.659344	11.565438	89.139000
47.684162	11.609014	89.185000
47.709625	11.640349	89.232000
47.734008	11.675316	89.278000
47.758357	11.709126	89.324000
47.784346	11.743351	89.371000
47.809337	11.770914	89.417000
47.834147	11.802128	89.463000
47.918496	11.826620	89.509000
47.942622	11.901743	89.664000
48.141950	12.392306	89.709000
48.167021	12.459658	90.077000
48.191558	12.535941	90.123000
48.216879	12.613563	90.170000
48.242438	12.698973	90.217000
48.267467	12.785132	90.263000
48.292546	12.872315	90.309000
48.318462	12.964440	90.355000
48.343010	13.057983	90.402000
48.367121	13.153432	90.448000
48.391512	13.251836	90.493000
48.416810	13.349496	90.539000
48.509561	13.449608	90.585000
48.535301	13.789487	90.756000
48.622646	14.095191	90.802000
48.648113	14.179000	90.965000
48.673564	14.255078	91.011000
48.698559	14.337231	91.057000
48.723357	14.423210	91.104000
48.747986	14.511753	91.151000
48.773449	14.594985	91.197000
48.797687	14.673383	91.243000
48.823276	14.752927	91.289000
48.848613	14.838267	91.335000
48.872754	14.922882	91.381000
48.898040	15.006825	91.427000
48.923338	15.094661	91.473000
48.947568	15.182721	91.519000
48.971817	15.275785	91.565000
48.996988	15.367669	91.611000
49.022635	15.453850	91.657000
49.106907	15.528914	91.703000
49.132347	15.726807	91.858000
49.218513	16.011852	91.905000
49.244357	16.102688	92.065000
49.268813	16.198048	92.112000
49.292563	16.296089	92.158000
49.318341	16.393610	92.204000
49.343519	16.494313	92.250000
49.368218	16.596324	92.296000
49.393727	16.701168	92.342000
49.418729	16.807178	92.388000
49.443669	16.912399	92.434000
49.467941	17.010416	92.480000
49.493281	17.110919	92.526000
49.517450	17.209361	92.572000
49.542690	17.300594	92.618000
49.568026	17.390465	92.664000
49.593224	17.484242	92.710000
49.617715	17.576853	92.755000
49.700500	17.666541	92.802000
49.725418	17.987555	92.956000
49.813854	18.310181	93.003000
49.838622	18.393273	93.165000
49.863712	18.467937	93.211000
49.888953	18.525585	93.257000
49.914343	18.575210	93.303000
49.938930	18.641269	93.349000
49.964589	18.710322	93.396000
49.989740	18.789019	93.442000
50.014631	18.881206	93.489000
50.039433	18.990273	93.535000
50.064201	19.111206	93.581000
50.089068	19.245198	93.627000
50.114466	19.389735	93.673000
50.140002	19.543045	93.720000
50.165277	19.684171	93.766000
50.190017	19.829419	93.813000
50.215699	19.983830	93.858000
50.414144	20.137455	93.905000
50.437947	20.909817	94.272000
50.463414	21.028427	94.318000
50.487939	21.164623	94.364000
50.513191	21.308407	94.411000
50.538854	21.433728	94.456000
50.563779	21.569760	94.503000
50.588182	21.717208	94.548000
50.613748	21.875817	94.594000
50.639154	22.032358	94.640000
50.664110	22.193056	94.687000
50.687928	22.354253	94.734000
50.713906	22.496207	94.779000
50.738647	22.605242	94.826000
50.763910	22.674129	94.872000
50.789696	22.733240	94.919000
50.814701	22.802963	94.965000
50.898278	22.888846	95.012000
50.922712	23.309980	95.166000
51.121844	24.349214	95.212000
51.146903	24.452966	95.581000
51.172351	24.562649	95.627000
51.196957	24.693504	95.673000
51.222482	24.843499	95.720000
51.248283	25.010830	95.766000
51.273431	25.183900	95.811000
51.297983	25.360103	95.858000
51.322993	25.531946	95.904000
51.346397	25.690122	95.950000
51.371483	25.839578	95.996000
51.396984	25.975452	96.041000
51.488940	26.103574	96.088000
51.512893	26.593446	96.257000
51.601898	27.094370	96.303000
51.626263	27.234249	96.466000
51.651353	27.375006	96.512000
51.675971	27.512857	96.557000
51.700201	27.644528	96.603000
51.725325	27.775573	96.649000
51.750788	27.899094	96.694000
51.775445	27.997897	96.739000
51.799467	28.063276	96.785000
51.824300	28.126161	96.831000
51.849379	28.207964	96.877000
51.874142	28.302533	96.923000
51.899836	28.409607	96.969000
51.925195	28.527830	97.016000
51.949744	28.652283	97.062000
51.974727	28.784831	97.108000
52.000097	28.913007	97.154000
52.083229	29.055778	97.200000
52.108761	29.546507	97.356000
52.196275	30.157480	97.403000
52.221435	30.358011	97.565000
52.247251	30.543201	97.612000
52.271477	30.707772	97.657000
52.296806	30.870582	97.703000
52.321854	31.044691	97.749000
52.347217	31.239569	97.794000
52.371412	31.460323	97.841000
52.397032	31.685092	97.888000
52.421251	31.872039	97.934000
52.446291	32.030354	97.980000
52.472092	32.205956	98.026000
52.497167	32.410135	98.072000
52.522280	32.609555	98.119000
52.548116	32.793793	98.166000
52.573068	32.984394	98.212000
52.598170	33.187067	98.258000
52.681005	33.401424	98.304000
52.705827	34.088763	98.459000
52.793518	34.573692	98.505000
52.818293	34.745379	98.666000
52.843307	34.938161	98.712000
52.868608	35.150171	98.758000
52.894413	35.333653	98.804000
52.919246	35.529151	98.851000
52.943384	35.723433	98.897000
52.968486	35.892763	98.943000
52.992462	36.003400	98.989000
53.018271	36.073346	99.035000
53.043645	36.141803	99.081000
53.069120	36.242797	99.128000
53.093626	36.369845	99.174000
53.119250	36.557049	99.220000
53.145090	36.769346	99.267000
53.169247	37.011661	99.313000
53.193634	37.274380	99.359000
53.392163	37.543677	99.405000
53.417261	38.498494	99.772000
53.441956	38.664684	99.818000
53.468256	38.844342	99.864000
53.492897	39.033744	99.910000
53.517734	39.212081	99.955000
53.543631	39.393584	100.003000
53.568145	39.619227	100.049000
53.592159	39.887012	100.096000
53.617449	40.176495	100.142000
53.642924	40.452150	100.188000
53.668252	40.700045	100.234000
53.693078	40.934865	100.281000
53.719017	41.185975	100.328000
53.744004	41.434327	100.373000
53.769182	41.628759	100.421000
53.794718	41.728860	100.467000
53.876935	41.791807	100.513000
53.902698	42.200978	100.668000
54.101742	43.688906	100.713000
