Sample	2mm tape 
date	08/01/2025
	
Temperature (K)	77.00
Angle (deg.)	0.000000
field / T	0.450000
	
		
Approx. trace time (s)	120.0	
		
Current / A	V1  -sample/ uV	time/s
-0.017846	1.352762	0.000000
-0.017840	1.370875	0.159000
-0.018643	1.392813	0.206000
-0.017919	1.393243	0.574000
-0.018515	1.391666	0.620000
-0.017889	1.394633	0.666000
-0.018771	1.395190	0.712000
-0.002709	1.399486	0.758000
0.023570	1.397252	0.804000
0.048750	1.397454	0.851000
0.074183	1.397464	0.897000
0.099572	1.393860	0.942000
0.123469	1.401413	0.989000
0.149723	1.403182	1.034000
0.245256	1.405133	1.081000
0.271185	1.401109	1.259000
0.354204	1.398673	1.305000
0.379644	1.387313	1.461000
0.405020	1.374377	1.507000
0.429671	1.387748	1.553000
0.455047	1.377370	1.599000
0.480074	1.368052	1.646000
0.505237	1.368366	1.692000
0.530782	1.365656	1.738000
0.556181	1.366273	1.784000
0.580370	1.355551	1.831000
0.605149	1.360965	1.876000
0.629947	1.364170	1.923000
0.655004	1.358058	1.970000
0.680648	1.350700	2.016000
0.706158	1.352891	2.062000
0.731105	1.349038	2.109000
0.756031	1.340528	2.155000
0.841470	1.346177	2.201000
0.867033	1.352548	2.359000
0.949950	1.351345	2.405000
0.975962	1.357215	2.561000
1.000243	1.366965	2.607000
1.025606	1.367805	2.652000
1.051417	1.366384	2.699000
1.075892	1.368508	2.745000
1.100726	1.377647	2.791000
1.125037	1.380570	2.837000
1.150088	1.385160	2.883000
1.175119	1.395159	2.930000
1.200342	1.407029	2.976000
1.225876	1.406665	3.022000
1.250514	1.417215	3.068000
1.276546	1.419031	3.115000
1.301251	1.423692	3.160000
1.326619	1.425723	3.207000
1.350572	1.437957	3.253000
1.473775	1.453199	3.299000
1.538128	1.491606	3.526000
1.563391	1.493861	3.646000
1.588533	1.498471	3.692000
1.613939	1.505680	3.738000
1.639069	1.510810	3.784000
1.663526	1.525329	3.831000
1.688352	1.533115	3.876000
1.712742	1.534191	3.923000
1.737830	1.538843	3.969000
1.763363	1.541971	4.015000
1.788150	1.559903	4.061000
1.814057	1.569740	4.108000
1.838915	1.567569	4.154000
1.864405	1.580820	4.201000
1.888801	1.583430	4.247000
1.913652	1.589675	4.293000
1.938087	1.596130	4.339000
2.147816	1.587877	4.385000
2.244581	1.617595	4.772000
2.268689	1.642364	4.948000
2.293372	1.660077	4.995000
2.318435	1.673019	5.041000
2.344027	1.686879	5.086000
2.369269	1.694644	5.133000
2.394873	1.693255	5.180000
2.419821	1.711494	5.227000
2.445366	1.719332	5.273000
2.470083	1.716378	5.319000
2.494844	1.723053	5.366000
2.519251	1.730474	5.413000
2.544773	1.734022	5.459000
2.629238	1.744112	5.504000
2.654569	1.754656	5.661000
2.854320	1.832349	5.706000
2.879247	1.839649	6.075000
2.904486	1.845204	6.122000
2.929866	1.855478	6.168000
2.954943	1.855397	6.215000
2.979371	1.875961	6.261000
3.004290	1.880773	6.307000
3.029821	1.891400	6.354000
3.055190	1.894080	6.400000
3.080256	1.896445	6.447000
3.105375	1.910965	6.493000
3.130074	1.917698	6.538000
3.224950	1.918123	6.584000
3.250087	1.946806	6.759000
3.333527	1.969540	6.806000
3.358493	1.973523	6.962000
3.383957	1.983402	7.008000
3.409302	1.986773	7.054000
3.434347	1.994951	7.100000
3.459309	2.005247	7.146000
3.485007	2.016259	7.193000
3.509877	2.012660	7.239000
3.534180	2.024694	7.285000
3.559379	2.035290	7.331000
3.584222	2.040963	7.378000
3.609644	2.052575	7.425000
3.634957	2.053609	7.471000
3.660143	2.063971	7.517000
3.685432	2.072386	7.563000
3.710521	2.084975	7.609000
3.736031	2.089469	7.656000
3.819560	2.098928	7.702000
3.844495	2.124144	7.859000
3.929458	2.143195	7.905000
3.954764	2.141829	8.060000
3.980131	2.144649	8.107000
4.004673	2.142428	8.153000
4.029559	2.151867	8.199000
4.053797	2.140713	8.245000
4.078649	2.151177	8.291000
4.104008	2.148784	8.337000
4.129636	2.152574	8.384000
4.154586	2.196575	8.431000
4.180305	2.141879	8.477000
4.205728	2.179444	8.524000
4.230594	2.175986	8.570000
4.255484	2.179211	8.616000
4.279800	2.175905	8.662000
4.304261	2.190241	8.708000
4.330038	2.186217	8.755000
4.415175	2.202336	8.800000
4.441101	2.203553	8.959000
4.525343	2.216932	9.006000
4.550486	2.224394	9.161000
4.575672	2.225835	9.207000
4.599804	2.231683	9.253000
4.624894	2.241819	9.299000
4.649635	2.246956	9.345000
4.675283	2.242214	9.391000
4.700450	2.252541	9.438000
4.725551	2.257127	9.484000
4.750443	2.264441	9.530000
4.775424	2.276412	9.577000
4.799471	2.281488	9.622000
4.824427	2.283642	9.668000
4.849382	2.290219	9.714000
4.874758	2.296659	9.761000
4.900168	2.302463	9.807000
4.925445	2.310894	9.853000
5.126388	2.311167	9.900000
5.151798	2.340843	10.272000
5.176941	2.341940	10.317000
5.202248	2.337299	10.364000
5.227633	2.346864	10.411000
5.253020	2.354437	10.457000
5.277020	2.356135	10.503000
5.301756	2.360609	10.550000
5.327174	2.361322	10.596000
5.352038	2.367913	10.643000
5.377557	2.368389	10.689000
5.402281	2.364472	10.735000
5.427656	2.368490	10.781000
5.453083	2.365872	10.828000
5.478433	2.363087	10.874000
5.503326	2.376104	10.920000
5.528056	2.373232	10.967000
5.611944	2.374542	11.013000
5.824025	2.390177	11.167000
5.849018	2.383904	11.559000
5.873737	2.384177	11.605000
5.898672	2.384157	11.651000
5.923711	2.382816	11.698000
5.949098	2.389833	11.744000
5.974988	2.388423	11.791000
5.999889	2.380613	11.837000
6.025132	2.382219	11.884000
6.050429	2.378960	11.930000
6.075200	2.374237	11.975000
6.100228	2.375163	12.023000
6.124753	2.370280	12.068000
6.208806	2.365462	12.116000
6.304196	2.342860	12.270000
6.329923	2.342213	12.447000
6.355031	2.337977	12.493000
6.380787	2.333866	12.540000
6.405431	2.327502	12.586000
6.430269	2.324636	12.632000
6.455026	2.325743	12.677000
6.479360	2.323276	12.723000
6.504922	2.321328	12.770000
6.529814	2.319686	12.816000
6.555160	2.317492	12.863000
6.580144	2.320110	12.909000
6.605330	2.316415	12.955000
6.630043	2.312760	13.001000
6.654419	2.315460	13.047000
6.678877	2.308301	13.092000
6.704318	2.305612	13.139000
6.798433	2.304747	13.185000
6.823794	2.294900	13.359000
6.908470	2.284910	13.405000
6.932926	2.274887	13.560000
6.957728	2.272278	13.606000
6.981973	2.269891	13.652000
7.007267	2.262875	13.699000
7.032726	2.257213	13.745000
7.057657	2.257344	13.791000
7.082932	2.258204	13.836000
7.108042	2.249797	13.883000
7.132936	2.241299	13.929000
7.157298	2.236425	13.975000
7.181845	2.231289	14.021000
7.207039	2.226507	14.067000
7.232048	2.214678	14.114000
7.258114	2.213734	14.161000
7.283239	2.204628	14.207000
7.308304	2.199682	14.254000
7.394542	2.196601	14.299000
7.419655	2.168962	14.458000
7.503695	2.151420	14.505000
7.528524	2.145954	14.661000
7.554120	2.139160	14.706000
7.579118	2.131679	14.752000
7.604401	2.128664	14.799000
7.629745	2.119594	14.846000
7.654768	2.117403	14.892000
7.679866	2.112800	14.938000
7.704305	2.108857	14.984000
7.728937	2.101452	15.030000
7.753711	2.095003	15.076000
7.779456	2.094669	15.123000
7.804444	2.078699	15.169000
7.829588	2.067265	15.216000
7.854712	2.053363	15.261000
7.879716	2.049755	15.307000
7.905012	2.037629	15.354000
8.106012	2.029920	15.400000
8.130974	1.940651	15.771000
8.155321	1.936622	15.817000
8.180586	1.920274	15.863000
8.204951	1.914976	15.909000
8.229816	1.907297	15.955000
8.255286	1.894401	16.001000
8.280058	1.886781	16.047000
8.305101	1.875725	16.093000
8.330039	1.872293	16.139000
8.354743	1.859397	16.184000
8.379419	1.855070	16.231000
8.403310	1.842341	16.277000
8.428834	1.834399	16.322000
8.453430	1.832498	16.368000
8.478756	1.826947	16.414000
8.503948	1.827942	16.460000
8.587638	1.816740	16.506000
8.611948	1.796626	16.661000
8.811030	1.749514	16.707000
8.836485	1.744543	17.074000
8.861141	1.741625	17.120000
8.886041	1.736239	17.167000
8.911308	1.732978	17.212000
8.936286	1.727320	17.258000
8.960791	1.719622	17.304000
8.984987	1.717089	17.350000
9.010191	1.707851	17.396000
9.035406	1.710723	17.442000
9.060313	1.706028	17.488000
9.085616	1.700391	17.534000
9.182245	1.703605	17.580000
9.207411	1.689956	17.759000
9.291573	1.685934	17.805000
9.315833	1.683339	17.960000
9.340539	1.676474	18.006000
9.365836	1.678513	18.052000
9.390589	1.679841	18.098000
9.415879	1.677013	18.144000
9.440799	1.674474	18.190000
9.465729	1.672002	18.236000
9.490921	1.665572	18.282000
9.515127	1.676302	18.328000
9.539645	1.675732	18.374000
9.564447	1.673747	18.419000
9.589652	1.668780	18.465000
9.614559	1.675217	18.511000
9.640208	1.672501	18.558000
9.665334	1.656183	18.604000
9.690243	1.673420	18.650000
9.778565	1.669770	18.696000
9.803537	1.654531	18.858000
9.886614	1.649096	18.906000
9.911393	1.644856	19.061000
9.936559	1.642050	19.107000
9.962224	1.637446	19.153000
9.987318	1.633048	19.199000
10.012250	1.627744	19.245000
10.037769	1.621995	19.292000
10.062626	1.611540	19.338000
10.087570	1.610712	19.384000
10.111844	1.601252	19.430000
10.137191	1.602641	19.476000
10.162288	1.598688	19.523000
10.187583	1.586613	19.568000
10.212592	1.579139	19.616000
10.238111	1.579809	19.661000
10.263254	1.572884	19.707000
10.287728	1.565367	19.754000
10.373641	1.554299	19.800000
10.398669	1.528200	19.959000
10.482734	1.502109	20.006000
10.508035	1.494785	20.161000
10.533195	1.490270	20.207000
10.558478	1.481353	20.253000
10.583922	1.471312	20.300000
10.609266	1.468579	20.346000
10.633572	1.461889	20.393000
10.658495	1.455494	20.439000
10.683032	1.453128	20.485000
10.708450	1.443902	20.532000
10.733470	1.441526	20.578000
10.758748	1.434297	20.624000
10.783988	1.434030	20.670000
10.809210	1.429248	20.716000
10.834549	1.421239	20.763000
10.859378	1.411948	20.809000
10.883895	1.404330	20.855000
11.084874	1.402646	20.901000
11.108937	1.384310	21.272000
11.134325	1.374529	21.317000
11.158943	1.370014	21.363000
11.184192	1.363953	21.410000
11.209720	1.363574	21.455000
11.234764	1.362194	21.502000
11.259568	1.356805	21.549000
11.284470	1.351857	21.594000
11.308556	1.358569	21.639000
11.332798	1.352792	21.686000
11.357843	1.352751	21.730000
11.383158	1.349473	21.776000
11.407558	1.350529	21.822000
11.432927	1.344405	21.868000
11.457511	1.340442	21.914000
11.483165	1.338525	21.961000
11.566337	1.338282	22.006000
11.591900	1.348418	22.163000
11.791284	1.336474	22.209000
11.816499	1.328468	22.577000
11.841707	1.334032	22.624000
11.866862	1.341618	22.670000
11.892786	1.342456	22.717000
11.917283	1.354772	22.763000
11.942730	1.339043	22.809000
11.967559	1.335403	22.856000
11.991982	1.337004	22.901000
12.017320	1.325768	22.948000
12.042185	1.330292	22.995000
12.067623	1.336112	23.040000
12.160600	1.329126	23.086000
12.186460	1.326834	23.259000
12.269429	1.328731	23.305000
12.294837	1.328751	23.461000
12.320027	1.326944	23.507000
12.345412	1.323124	23.553000
12.370424	1.324738	23.600000
12.395847	1.326975	23.647000
12.421551	1.329746	23.693000
12.446220	1.326450	23.739000
12.470640	1.326883	23.785000
12.494759	1.327646	23.831000
12.519859	1.326015	23.877000
12.545020	1.331407	23.923000
12.570325	1.324179	23.969000
12.595938	1.334369	24.016000
12.620935	1.327059	24.062000
12.645915	1.328893	24.108000
12.670615	1.331417	24.154000
12.756366	1.328944	24.200000
12.780969	1.338221	24.359000
12.865113	1.343209	24.405000
12.890863	1.335687	24.560000
12.915324	1.347039	24.606000
12.940418	1.345703	24.652000
12.964432	1.349452	24.697000
12.988877	1.354459	24.743000
13.013468	1.360814	24.788000
13.038519	1.365272	24.834000
13.063934	1.363189	24.880000
13.089080	1.364266	24.927000
13.114399	1.375504	24.973000
13.139117	1.375954	25.019000
13.164264	1.380145	25.065000
13.188888	1.396929	25.112000
13.213497	1.391681	25.157000
13.238964	1.407989	25.204000
13.263829	1.400584	25.250000
13.351795	1.402585	25.297000
13.377261	1.432609	25.459000
13.461643	1.455464	25.506000
13.486969	1.455741	25.661000
13.512228	1.457384	25.706000
13.536735	1.465676	25.752000
13.560963	1.463645	25.799000
13.585832	1.467177	25.846000
13.611394	1.470094	25.892000
13.636397	1.460813	25.938000
13.661432	1.465453	25.984000
13.686915	1.459696	26.030000
13.712028	1.458643	26.077000
13.737093	1.450712	26.123000
13.761722	1.445120	26.169000
13.786495	1.434100	26.214000
13.811529	1.432386	26.262000
13.836594	1.425531	26.308000
13.861511	1.419622	26.354000
14.062602	1.412545	26.400000
14.087906	1.377345	26.772000
14.113454	1.375090	26.818000
14.138452	1.371778	26.864000
14.163518	1.370581	26.910000
14.188478	1.364529	26.956000
14.213821	1.365373	27.002000
14.238613	1.360794	27.049000
14.262909	1.358144	27.095000
14.288051	1.354019	27.142000
14.313583	1.351188	27.188000
14.338053	1.354347	27.234000
14.363755	1.352144	27.281000
14.388982	1.351330	27.327000
14.414150	1.352022	27.373000
14.439677	1.333284	27.420000
14.464388	1.345897	27.466000
14.547073	1.342490	27.513000
14.760419	1.334257	27.666000
14.785657	1.331915	28.059000
14.810109	1.324188	28.105000
14.834257	1.326743	28.151000
14.859478	1.329004	28.197000
14.884281	1.324460	28.242000
14.909461	1.324279	28.288000
14.934779	1.305148	28.334000
14.960138	1.321866	28.381000
14.985174	1.321320	28.426000
15.010877	1.324616	28.473000
15.034780	1.330069	28.519000
15.060079	1.327646	28.565000
15.144310	1.317903	28.612000
15.241758	1.292019	28.767000
15.266452	1.289263	28.947000
15.291871	1.280590	28.992000
15.316807	1.271141	29.039000
15.342382	1.272413	29.085000
15.367657	1.268518	29.132000
15.391890	1.271019	29.178000
15.416537	1.261757	29.223000
15.441721	1.258062	29.270000
15.467243	1.247967	29.317000
15.491875	1.255105	29.363000
15.517548	1.243516	29.410000
15.542626	1.241536	29.456000
15.567858	1.237301	29.502000
15.593148	1.231224	29.548000
15.617952	1.232633	29.594000
15.643046	1.225242	29.641000
15.735464	1.226631	29.687000
15.760947	1.215202	29.859000
15.845497	1.201204	29.905000
15.870883	1.194198	30.061000
15.895728	1.194057	30.107000
15.919935	1.195516	30.153000
15.945315	1.184728	30.200000
15.969844	1.185344	30.245000
15.995502	1.179801	30.292000
16.020092	1.184300	30.338000
16.045802	1.183694	30.385000
16.070786	1.184830	30.430000
16.095916	1.175744	30.477000
16.121383	1.177753	30.523000
16.146174	1.177338	30.570000
16.170838	1.170362	30.616000
16.195358	1.177172	30.662000
16.220721	1.172502	30.708000
16.246113	1.166334	30.754000
16.331800	1.170534	30.801000
16.356945	1.178646	30.959000
16.441422	1.175340	31.005000
16.465844	1.180328	31.161000
16.490646	1.182901	31.207000
16.515729	1.180075	31.253000
16.540637	1.180690	31.299000
16.565837	1.179192	31.346000
16.591036	1.180826	31.391000
16.616743	1.181605	31.438000
16.642051	1.171059	31.484000
16.666761	1.180998	31.531000
16.691400	1.177682	31.577000
16.715796	1.185435	31.623000
16.741144	1.180690	31.669000
16.766344	1.178595	31.716000
16.791092	1.181856	31.762000
16.817070	1.180186	31.808000
16.841911	1.180538	31.854000
17.042255	1.184597	31.901000
17.068106	1.184324	32.272000
17.093231	1.188733	32.318000
17.118168	1.183441	32.364000
17.143548	1.183643	32.411000
17.168423	1.183158	32.457000
17.192395	1.181241	32.503000
17.218102	1.183441	32.550000
17.242786	1.185783	32.596000
17.268200	1.186530	32.642000
17.293740	1.195779	32.688000
17.318504	1.192880	32.734000
17.343998	1.202113	32.781000
17.369067	1.208402	32.827000
17.393715	1.200139	32.874000
17.418352	1.205431	32.920000
17.442651	1.209477	32.966000
17.527504	1.220578	33.012000
17.739404	1.237724	33.166000
17.764485	1.238011	33.559000
17.789431	1.239845	33.605000
17.814750	1.249425	33.651000
17.839777	1.248067	33.697000
17.865290	1.255713	33.744000
17.890405	1.261278	33.790000
17.915317	1.268102	33.836000
17.940372	1.274275	33.882000
17.964299	1.282518	33.928000
17.989539	1.289150	33.974000
18.014276	1.296925	34.020000
18.039704	1.299115	34.067000
18.124043	1.307897	34.113000
18.220672	1.335666	34.268000
18.245911	1.339123	34.447000
18.271533	1.346200	34.493000
18.296470	1.347609	34.540000
18.321074	1.359432	34.586000
18.345915	1.368389	34.632000
18.370565	1.363259	34.678000
18.395807	1.359483	34.725000
18.420707	1.372682	34.770000
18.446322	1.370296	34.817000
18.470926	1.375058	34.863000
18.495961	1.371302	34.908000
18.521218	1.380927	34.955000
18.545425	1.380765	35.000000
18.569997	1.388707	35.047000
18.595756	1.382440	35.092000
18.620806	1.392044	35.140000
18.714573	1.396422	35.186000
18.739778	1.408767	35.359000
18.824258	1.411113	35.406000
18.848770	1.418311	35.561000
18.873547	1.413726	35.607000
18.898643	1.414863	35.654000
18.923968	1.421349	35.700000
18.949079	1.424201	35.746000
18.974068	1.420394	35.792000
18.999625	1.432588	35.837000
19.024508	1.436945	35.884000
19.049193	1.436904	35.930000
19.073955	1.444826	35.976000
19.099064	1.438001	36.023000
19.124139	1.439331	36.069000
19.149003	1.455507	36.116000
19.174495	1.447172	36.162000
19.199879	1.455497	36.209000
19.225090	1.466449	36.255000
19.310865	1.467920	36.301000
19.335619	1.474734	36.459000
19.419278	1.485638	36.504000
19.444756	1.491638	36.661000
19.469868	1.501466	36.708000
19.495258	1.504554	36.754000
19.520556	1.510242	36.800000
19.545827	1.513255	36.846000
19.570807	1.529269	36.892000
19.594739	1.529826	36.938000
19.619042	1.546407	36.984000
19.644476	1.554824	37.031000
19.669707	1.552594	37.077000
19.695285	1.568665	37.123000
19.720149	1.567843	37.169000
19.745473	1.579090	37.216000
19.770381	1.594081	37.262000
19.796004	1.606004	37.308000
19.820412	1.612304	37.355000
20.021488	1.622593	37.401000
20.046529	1.721215	37.771000
20.070680	1.721487	37.817000
20.095666	1.731932	37.863000
20.121052	1.747709	37.910000
20.145782	1.752495	37.956000
20.171225	1.754887	38.002000
20.196444	1.757735	38.048000
20.221969	1.759104	38.095000
20.246640	1.753233	38.141000
20.271648	1.755646	38.188000
20.295355	1.754045	38.233000
20.320202	1.766140	38.279000
20.345742	1.770359	38.325000
20.371007	1.773695	38.371000
20.396427	1.768885	38.417000
20.421358	1.764488	38.464000
20.505183	1.766922	38.509000
20.529876	1.765371	38.665000
20.728554	1.786128	38.711000
20.753666	1.793681	39.079000
20.779073	1.796790	39.125000
20.804544	1.805348	39.172000
20.829553	1.815686	39.217000
20.854790	1.838905	39.264000
20.880162	1.841312	39.310000
20.905489	1.842317	39.357000
20.930650	1.859793	39.404000
20.955293	1.865501	39.450000
20.980324	1.871062	39.497000
21.004730	1.878710	39.542000
21.097923	1.881592	39.589000
21.122825	1.918588	39.759000
21.206999	1.947640	39.805000
21.231696	1.959398	39.960000
21.256112	1.957851	40.007000
21.281719	1.963367	40.054000
21.306548	1.970272	40.099000
21.332151	1.967734	40.146000
21.357295	1.973255	40.192000
21.381980	1.981686	40.238000
21.406548	1.982855	40.283000
21.430573	1.998846	40.329000
21.455273	2.006838	40.374000
21.480503	2.005123	40.420000
21.505807	2.001158	40.467000
21.530911	2.005740	40.512000
21.556260	2.016489	40.559000
21.581700	2.016337	40.606000
21.606310	2.009756	40.652000
21.693829	2.008813	40.698000
21.718443	2.020321	40.859000
21.802179	2.023991	40.905000
21.827771	2.028958	41.061000
21.852773	2.032608	41.107000
21.878086	2.034191	41.154000
21.903449	2.029993	41.200000
21.928743	2.034323	41.247000
21.954016	2.023248	41.293000
21.979023	2.025469	41.340000
22.003059	2.022815	41.385000
22.028084	2.022572	41.432000
22.053634	2.019125	41.479000
22.078248	2.014218	41.525000
22.103451	2.013819	41.570000
22.128701	2.010659	41.616000
22.154296	1.999745	41.663000
22.179195	2.008803	41.709000
22.203805	2.007858	41.755000
22.288265	2.004503	41.801000
22.313749	1.991187	41.959000
22.398223	1.981237	42.006000
22.423429	1.970646	42.161000
22.448899	1.981959	42.208000
22.474007	1.982566	42.254000
22.499860	1.976191	42.300000
22.524432	1.975681	42.346000
22.549301	1.972901	42.393000
22.574122	1.971864	42.440000
22.599080	1.971156	42.486000
22.624689	1.971561	42.532000
22.649601	1.961723	42.578000
22.675033	1.963295	42.624000
22.700285	1.963417	42.670000
22.725717	1.968180	42.717000
22.750809	1.963083	42.764000
22.774749	1.962678	42.810000
22.800170	1.962543	42.856000
22.999682	1.966597	42.902000
23.024246	1.994303	43.271000
23.049878	1.999735	43.316000
23.074830	1.995550	43.363000
23.100103	1.995874	43.410000
23.125428	1.994678	43.456000
23.151042	1.995121	43.502000
23.175482	1.985898	43.548000
23.200155	1.994566	43.595000
23.224733	1.990407	43.641000
23.249683	1.992435	43.687000
23.275336	2.003447	43.734000
23.300067	2.000275	43.780000
23.325766	1.993905	43.826000
23.351035	1.986803	43.872000
23.376244	1.977815	43.917000
23.401337	1.980312	43.965000
23.483949	1.978588	44.011000
23.697567	1.939980	44.166000
23.722914	1.947527	44.559000
23.747939	1.949150	44.605000
23.772035	1.931361	44.651000
23.796787	1.927200	44.697000
23.822171	1.940041	44.743000
23.847340	1.934247	44.790000
23.872323	1.941466	44.836000
23.897632	1.938570	44.882000
23.922694	1.936674	44.928000
23.947435	1.942634	44.974000
23.972730	1.936613	45.019000
23.997581	1.939586	45.067000
24.081213	1.942114	45.112000
24.177662	1.940946	45.267000
24.202666	1.941911	45.447000
24.228265	1.937270	45.493000
24.253088	1.941466	45.539000
24.278601	1.940875	45.585000
24.304152	1.940025	45.632000
24.329143	1.963699	45.678000
24.354494	1.973112	45.725000
24.379097	1.973723	45.771000
24.403511	1.974320	45.817000
24.428223	1.981928	45.863000
24.453075	1.982474	45.908000
24.478302	1.986018	45.955000
24.504257	1.993125	46.001000
24.529207	1.986791	46.048000
24.554474	1.994646	46.093000
24.579045	1.993621	46.141000
24.671725	2.019637	46.186000
24.697276	2.026362	46.359000
24.781431	2.036275	46.406000
24.806948	2.032263	46.561000
24.832188	2.051374	46.607000
24.857211	2.056789	46.652000
24.881939	2.062953	46.700000
24.906514	2.073720	46.746000
24.931510	2.076905	46.792000
24.956897	2.087424	46.838000
24.981852	2.089576	46.884000
25.007444	2.096137	46.931000
25.032398	2.102799	46.977000
25.057515	2.120950	47.023000
25.082540	2.123485	47.069000
25.106664	2.135407	47.114000
25.130936	2.134272	47.161000
25.156225	2.148881	47.207000
25.181038	2.158512	47.252000
25.267873	2.165195	47.298000
25.292827	2.191796	47.459000
25.378098	2.221923	47.505000
25.403113	2.235224	47.662000
25.427103	2.226614	47.707000
25.452070	2.243591	47.752000
25.476826	2.253105	47.799000
25.502622	2.263013	47.846000
25.527155	2.275201	47.891000
25.552484	2.284134	47.937000
25.578039	2.301508	47.984000
25.603008	2.317741	48.030000
25.628043	2.329415	48.077000
25.651927	2.339672	48.122000
25.677322	2.351132	48.168000
25.702067	2.367319	48.215000
25.727353	2.387302	48.261000
25.752517	2.396502	48.307000
25.777275	2.410860	48.353000
25.978516	2.420950	48.399000
26.003612	2.525174	48.770000
26.029269	2.537274	48.817000
26.054211	2.548273	48.864000
26.079457	2.570235	48.909000
26.103504	2.570316	48.955000
26.127842	2.602749	49.001000
26.153191	2.614328	49.048000
26.178234	2.637169	49.094000
26.203501	2.652955	49.140000
26.228628	2.673519	49.186000
26.253641	2.694402	49.232000
26.279052	2.704588	49.279000
26.304227	2.723207	49.325000
26.329364	2.747992	49.372000
26.352863	2.761249	49.418000
26.378672	2.780595	49.464000
26.462547	2.808586	49.510000
26.488109	2.895273	49.665000
26.687530	3.120040	49.711000
26.711911	3.160845	50.079000
26.737269	3.192795	50.125000
26.761925	3.212354	50.172000
26.786585	3.240507	50.217000
26.811548	3.266769	50.264000
26.836416	3.299932	50.309000
26.861735	3.328929	50.356000
26.886666	3.353921	50.401000
26.912209	3.372870	50.447000
26.936896	3.422888	50.494000
26.962480	3.438723	50.541000
27.054666	3.484002	50.586000
27.080439	3.586021	50.759000
27.164680	3.687728	50.806000
27.189584	3.739369	50.961000
27.214732	3.736541	51.007000
27.239288	3.775360	51.053000
27.264359	3.813560	51.099000
27.288524	3.842065	51.145000
27.314112	3.876194	51.192000
27.339181	3.908272	51.238000
27.364604	3.951704	51.284000
27.389688	3.988021	51.330000
27.414951	4.013293	51.376000
27.439830	4.071085	51.422000
27.464546	4.114308	51.468000
27.488786	4.150528	51.514000
27.514120	4.184340	51.561000
27.539333	4.223557	51.607000
27.564464	4.263528	51.653000
27.650603	4.314117	51.699000
27.676440	4.464643	51.859000
27.760870	4.630235	51.906000
27.785782	4.676206	52.061000
27.810219	4.726823	52.107000
27.834946	4.784197	52.153000
27.860104	4.843234	52.200000
27.885165	4.885289	52.246000
27.910826	4.936903	52.293000
27.935897	4.989387	52.338000
27.961518	5.046576	52.385000
27.986257	5.090012	52.431000
28.011601	5.136653	52.478000
28.036481	5.178160	52.524000
28.060775	5.235972	52.570000
28.085600	5.288588	52.616000
28.110884	5.345113	52.663000
28.136509	5.392743	52.709000
28.161138	5.460761	52.755000
28.247246	5.515235	52.801000
28.272166	5.714571	52.959000
28.355529	5.904974	53.005000
28.380864	5.969717	53.161000
28.405754	6.024105	53.208000
28.431246	6.087157	53.254000
28.456183	6.145828	53.299000
28.481715	6.209651	53.346000
28.506799	6.268817	53.392000
28.531824	6.329271	53.438000
28.555902	6.390399	53.483000
28.580680	6.456282	53.529000
28.605870	6.526318	53.577000
28.631231	6.597198	53.623000
28.656239	6.664045	53.670000
28.681083	6.734076	53.716000
28.706237	6.801457	53.761000
28.731715	6.868720	53.808000
28.756164	6.934165	53.853000
28.957874	6.998173	53.900000
28.982734	7.532921	54.271000
29.008222	7.590633	54.317000
29.032357	7.662983	54.363000
29.056364	7.735630	54.410000
29.081654	7.808609	54.456000
29.106883	7.889142	54.501000
29.132012	7.967302	54.548000
29.157488	8.052102	54.594000
29.182621	8.129274	54.640000
29.207557	8.205505	54.686000
29.232438	8.278920	54.733000
29.256722	8.355896	54.779000
29.281893	8.426073	54.825000
29.307402	8.502517	54.872000
29.332448	8.575997	54.917000
29.357490	8.658170	54.964000
29.441472	8.736544	55.010000
29.466413	8.993613	55.165000
29.665088	9.738859	55.210000
29.689293	9.840443	55.578000
29.714535	9.949163	55.624000
29.739708	10.057583	55.670000
29.764473	10.169992	55.716000
29.789954	10.283984	55.762000
29.815351	10.390963	55.808000
29.840127	10.503716	55.854000
29.864666	10.609213	55.900000
29.889479	10.718605	55.947000
29.914272	10.833329	55.993000
29.939435	10.938663	56.039000
30.033350	11.043346	56.085000
30.058855	11.461702	56.259000
30.143441	11.792447	56.305000
30.167665	11.894782	56.460000
30.192185	11.999764	56.507000
30.216962	12.087709	56.553000
30.242642	12.187502	56.599000
30.267258	12.280373	56.645000
30.292555	12.373410	56.691000
30.317707	12.469063	56.737000
30.342471	12.555402	56.783000
30.367425	12.653402	56.828000
30.391136	12.754111	56.874000
30.416176	12.848186	56.920000
30.441115	12.948051	56.965000
30.465948	13.049473	57.011000
30.491257	13.149585	57.057000
30.515744	13.255021	57.103000
30.540355	13.347682	57.149000
30.629112	13.449983	57.194000
30.654423	13.762347	57.359000
30.738106	14.086057	57.405000
30.762633	14.185442	57.560000
30.787558	14.288300	57.605000
30.812612	14.388650	57.651000
30.837825	14.502807	57.697000
30.862581	14.603989	57.743000
30.887046	14.734279	57.788000
30.911429	14.844109	57.834000
30.935991	14.972233	57.880000
30.960565	15.091436	57.926000
30.985855	15.211388	57.972000
31.010984	15.338398	58.016000
31.035605	15.459959	58.062000
31.060152	15.587508	58.108000
31.084324	15.712610	58.154000
31.108855	15.833994	58.199000
31.133813	15.956209	58.245000
31.225227	16.078489	58.291000
31.249199	16.507253	58.459000
31.334058	16.914560	58.504000
31.358935	17.018081	58.660000
31.383940	17.144142	58.706000
31.408512	17.263699	58.751000
31.433109	17.392914	58.797000
31.456997	17.536300	58.843000
31.481868	17.681623	58.888000
31.506768	17.832014	58.934000
31.532191	17.988373	58.980000
31.556732	18.136584	59.025000
31.581663	18.291355	59.071000
31.605741	18.425334	59.116000
31.630437	18.574267	59.162000
31.655218	18.712621	59.208000
31.680266	18.858091	59.253000
31.705157	18.998719	59.299000
31.730268	19.136095	59.344000
31.935663	19.271082	59.391000
31.959790	20.365435	59.771000
31.984587	20.484419	59.817000
32.009604	20.625708	59.862000
32.034597	20.774968	59.907000
32.059574	20.926376	59.953000
32.084902	21.088218	59.999000
32.108915	21.260608	60.045000
32.133285	21.427799	60.091000
32.157872	21.588737	60.136000
32.182978	21.758544	60.181000
32.207845	21.918217	60.227000
32.232713	22.090623	60.273000
32.257734	22.252217	60.319000
32.282090	22.432380	60.364000
32.305840	22.610158	60.410000
32.331038	22.797438	60.455000
32.416635	22.985120	60.501000
32.441779	23.592521	60.659000
32.640777	25.014164	60.705000
32.666463	25.186396	61.074000
32.691219	25.362564	61.119000
32.715483	25.517175	61.165000
32.740028	25.685191	61.212000
32.765626	25.856541	61.258000
32.790451	26.024336	61.304000
32.815802	26.200844	61.349000
32.841016	26.394500	61.396000
32.866302	26.580492	61.443000
32.891127	26.767847	61.488000
32.915749	26.967925	61.534000
33.012472	27.170135	61.581000
33.038035	28.040525	61.759000
33.121339	28.881408	61.805000
33.146479	29.129405	61.961000
33.171827	29.378510	62.007000
33.197071	29.624019	62.054000
33.222388	29.874487	62.100000
33.247766	30.124557	62.147000
33.272826	30.377940	62.194000
33.298362	30.625125	62.240000
33.323068	30.888394	62.286000
33.347674	31.143791	62.332000
33.371777	31.394256	62.378000
33.396725	31.647876	62.425000
33.422288	31.904058	62.470000
33.447183	32.155410	62.516000
33.472285	32.407573	62.562000
33.497333	32.667361	62.608000
33.522250	32.919964	62.654000
33.608059	33.165776	62.700000
33.632266	33.971230	62.859000
33.716880	34.740192	62.905000
33.742224	34.959217	63.061000
33.766918	35.168137	63.105000
33.791690	35.398816	63.152000
33.816430	35.627605	63.198000
33.840956	35.840903	63.244000
33.865628	36.060267	63.290000
33.891010	36.268101	63.336000
33.916281	36.490344	63.382000
33.941325	36.709111	63.428000
33.966515	36.937274	63.474000
33.991556	37.155840	63.520000
34.016243	37.367719	63.565000
34.040273	37.579195	63.611000
34.065213	37.783139	63.658000
34.090626	38.013076	63.704000
34.115889	38.233190	63.751000
34.203016	38.449317	63.797000
34.228548	39.257115	63.958000
34.313131	40.014937	64.005000
34.338579	40.242249	64.161000
34.363704	40.476988	64.207000
34.388252	40.707726	64.253000
34.413024	40.943498	64.300000
34.437365	41.180182	64.345000
34.463132	41.426699	64.391000
