Sample	2mm tape 
date	07/01/2025
	
Temperature (K)	77.00
Angle (deg.)	0.000000
field / T	0.000000
	
		
Approx. trace time (s)	120.0	
		
Current / A	V1  -sample/ uV	time/s
-0.018344	-0.923577	0.000000
-0.018648	-0.930384	0.137000
-0.018174	-0.929240	0.183000
-0.018563	-0.924522	0.228000
-0.017894	-0.918015	0.274000
-0.018271	-0.909101	0.320000
-0.018052	-0.899766	0.366000
-0.018302	-0.887846	0.412000
-0.018916	-0.875023	0.457000
-0.018198	-0.860384	0.504000
-0.019135	-0.844333	0.550000
-0.017796	-0.826286	0.596000
0.113247	-0.651854	0.641000
0.136559	-0.632211	1.009000
0.160621	-0.608266	1.055000
0.245236	-0.583761	1.102000
0.270726	-0.508447	1.256000
0.295587	-0.491416	1.302000
0.320517	-0.478208	1.348000
0.345150	-0.469206	1.393000
0.369886	-0.463021	1.440000
0.394789	-0.459790	1.486000
0.418987	-0.458448	1.531000
0.444240	-0.457481	1.577000
0.469435	-0.458478	1.623000
0.494853	-0.460995	1.670000
0.582318	-0.474625	1.716000
0.607475	-0.485034	1.877000
0.632635	-0.492749	1.924000
0.656807	-0.503699	1.970000
0.681635	-0.516858	2.015000
0.706816	-0.531935	2.062000
0.731463	-0.550566	2.108000
0.756948	-0.571332	2.154000
0.955666	-0.593812	2.199000
0.980873	-0.810265	2.567000
1.006285	-0.833543	2.614000
1.031465	-0.853979	2.659000
1.055333	-0.870625	2.706000
1.080093	-0.881393	2.752000
1.178089	-0.864173	2.798000
1.202552	-0.851928	2.977000
1.227300	-0.834953	3.024000
1.252185	-0.814687	3.070000
1.277883	-0.793145	3.116000
1.302767	-0.769357	3.162000
1.327835	-0.743947	3.207000
1.353102	-0.716444	3.253000
1.435573	-0.685022	3.300000
1.460632	-0.591937	3.455000
1.485584	-0.568357	3.501000
1.511470	-0.549696	3.547000
1.536249	-0.537433	3.593000
1.561605	-0.533054	3.639000
1.586485	-0.535343	3.685000
1.610963	-0.547628	3.731000
1.635515	-0.567004	3.777000
1.660626	-0.588794	3.824000
1.685914	-0.609243	3.870000
1.772810	-0.662214	3.916000
1.798179	-0.661298	4.077000
1.823486	-0.647896	4.123000
1.848967	-0.630438	4.169000
1.873736	-0.612875	4.216000
1.898689	-0.594518	4.261000
1.923970	-0.576074	4.308000
1.947881	-0.559662	4.354000
2.032173	-0.542020	4.400000
2.056968	-0.486354	4.554000
2.082111	-0.471569	4.601000
2.107514	-0.455738	4.647000
2.132634	-0.442189	4.693000
2.157236	-0.430775	4.739000
2.181461	-0.420830	4.785000
2.206667	-0.409305	4.831000
2.231829	-0.398866	4.877000
2.256483	-0.386167	4.924000
2.282034	-0.371125	4.970000
2.369410	-0.317211	5.016000
2.394078	-0.305905	5.177000
2.419214	-0.292111	5.223000
2.444342	-0.279274	5.269000
2.468294	-0.267176	5.315000
2.493200	-0.254419	5.361000
2.518401	-0.239643	5.407000
2.543642	-0.225025	5.454000
2.627975	-0.207612	5.500000
2.653305	-0.156440	5.655000
2.678144	-0.145155	5.700000
2.702513	-0.135379	5.747000
2.727243	-0.124739	5.793000
2.752284	-0.112211	5.839000
2.777034	-0.098108	5.885000
2.802543	-0.081186	5.931000
2.827471	-0.064864	5.977000
2.852474	-0.048168	6.023000
2.877886	-0.031506	6.070000
3.079777	0.021452	6.116000
3.104699	0.014476	6.489000
3.129282	0.004140	6.535000
3.213744	-0.014915	6.581000
3.238079	-0.080797	6.737000
3.262919	-0.088948	6.782000
3.288442	-0.099193	6.828000
3.313599	-0.104366	6.875000
3.338620	-0.112342	6.921000
3.363524	-0.115224	6.966000
3.388681	-0.118718	7.013000
3.412864	-0.122201	7.058000
3.437963	-0.124970	7.105000
3.462473	-0.128454	7.151000
3.560502	-0.138389	7.197000
3.585004	-0.145185	7.377000
3.610198	-0.148428	7.423000
3.635644	-0.148358	7.470000
3.660394	-0.144101	7.515000
3.685493	-0.137014	7.561000
3.710655	-0.128044	7.608000
3.736286	-0.117733	7.654000
3.934699	-0.106664	7.700000
3.958898	-0.098108	8.067000
3.983389	-0.105155	8.113000
4.008381	-0.111680	8.159000
4.033935	-0.119318	8.205000
4.058909	-0.125676	8.251000
4.155916	-0.072516	8.297000
4.180923	-0.175847	8.477000
4.206192	-0.170831	8.522000
4.231059	-0.179790	8.569000
4.255820	-0.190211	8.614000
4.280814	-0.205391	8.660000
4.305295	-0.225951	8.707000
4.330232	-0.247122	8.753000
4.414006	-0.267247	8.798000
4.439919	-0.327638	8.954000
4.464885	-0.331681	9.000000
4.490155	-0.328333	9.046000
4.514594	-0.322192	9.092000
4.538761	-0.312862	9.138000
4.563861	-0.303333	9.184000
4.588471	-0.295110	9.230000
4.614074	-0.283538	9.276000
4.639034	-0.273769	9.322000
4.664069	-0.263738	9.368000
4.752335	-0.238253	9.415000
4.776829	-0.238133	9.577000
4.802437	-0.236937	9.623000
4.827064	-0.235941	9.669000
4.852239	-0.237287	9.715000
4.876373	-0.239510	9.761000
4.901503	-0.243393	9.808000
4.926733	-0.246961	9.854000
5.010780	-0.248468	9.900000
5.035741	-0.259044	10.055000
5.060620	-0.264149	10.101000
5.085289	-0.271172	10.146000
5.109547	-0.279900	10.193000
5.134811	-0.287598	10.239000
5.160135	-0.295450	10.285000
5.185511	-0.300055	10.332000
5.211064	-0.304034	10.377000
5.235596	-0.306537	10.424000
5.261419	-0.311412	10.470000
5.348128	-0.354479	10.517000
5.373099	-0.374965	10.677000
5.397402	-0.384670	10.723000
5.421867	-0.389137	10.769000
5.447331	-0.388897	10.815000
5.471962	-0.385744	10.861000
5.497653	-0.380385	10.907000
5.522755	-0.373638	10.954000
5.606584	-0.365980	10.999000
5.631475	-0.341491	11.155000
5.655585	-0.336977	11.201000
5.680937	-0.335025	11.247000
5.705913	-0.333628	11.293000
5.731474	-0.334033	11.339000
5.756408	-0.335961	11.385000
5.781843	-0.340555	11.432000
5.807081	-0.346225	11.478000
5.831295	-0.355996	11.524000
5.856280	-0.368503	11.570000
6.058594	-0.409456	11.616000
6.083278	-0.404435	11.988000
6.107546	-0.393314	12.035000
6.192310	-0.379742	12.081000
6.217632	-0.328223	12.237000
6.242647	-0.309724	12.283000
6.267833	-0.289084	12.329000
6.293106	-0.268178	12.376000
6.317789	-0.247802	12.421000
6.342063	-0.229269	12.467000
6.366137	-0.210580	12.514000
6.391562	-0.191136	12.559000
6.416947	-0.175435	12.605000
6.442262	-0.162413	12.651000
6.538938	-0.118024	12.697000
6.564278	-0.113476	12.876000
6.588803	-0.108168	12.923000
6.614325	-0.103821	12.969000
6.639403	-0.101392	13.015000
6.664319	-0.096434	13.061000
6.688216	-0.093171	13.107000
6.713009	-0.090333	13.152000
6.911769	-0.089307	13.199000
6.937177	-0.141713	13.565000
6.962364	-0.152623	13.612000
6.987082	-0.164501	13.658000
7.012623	-0.172943	13.704000
7.037252	-0.180361	13.751000
7.135093	-0.205030	13.797000
7.159845	-0.209874	13.977000
7.184823	-0.208158	14.023000
7.209872	-0.206356	14.069000
7.233646	-0.202857	14.115000
7.258459	-0.198598	14.160000
7.283901	-0.194985	14.206000
7.309038	-0.193729	14.253000
7.393123	-0.194224	14.299000
7.418471	-0.211847	14.454000
7.443023	-0.222341	14.500000
7.467391	-0.231396	14.546000
7.493110	-0.241341	14.592000
7.518032	-0.250910	14.638000
7.543483	-0.259364	14.684000
7.568439	-0.265820	14.730000
7.593318	-0.273343	14.776000
7.618479	-0.278218	14.822000
7.643215	-0.280925	14.868000
7.732084	-0.244384	14.915000
7.756727	-0.228884	15.077000
7.781448	-0.210891	15.123000
7.806248	-0.192743	15.169000
7.830898	-0.175646	15.216000
7.856227	-0.160605	15.262000
7.880932	-0.146330	15.308000
7.906548	-0.130544	15.354000
7.989845	-0.115275	15.400000
8.014575	-0.062396	15.555000
8.038950	-0.046100	15.601000
8.064473	-0.032267	15.646000
8.089641	-0.016970	15.692000
8.114866	-0.005889	15.739000
8.140453	0.005735	15.785000
8.164882	0.015674	15.831000
8.190302	0.026244	15.878000
8.214704	0.038810	15.924000
8.239399	0.051487	15.970000
8.326798	0.074155	16.017000
8.351695	0.060071	16.177000
8.376541	0.043308	16.223000
8.401685	0.019749	16.270000
8.427309	-0.005466	16.316000
8.451994	-0.032652	16.361000
8.477669	-0.062816	16.408000
8.502129	-0.092086	16.454000
8.584933	-0.122510	16.500000
8.610231	-0.193028	16.654000
8.635108	-0.204094	16.700000
8.660610	-0.210660	16.747000
8.685290	-0.213954	16.792000
8.710461	-0.211987	16.839000
8.734769	-0.210560	16.885000
8.759267	-0.205671	16.930000
8.784620	-0.201531	16.977000
8.809534	-0.197752	17.022000
8.834933	-0.193769	17.069000
9.037107	-0.242737	17.115000
9.061956	-0.256611	17.489000
9.086589	-0.266701	17.535000
9.172049	-0.275456	17.580000
9.197094	-0.297812	17.737000
9.221672	-0.297812	17.782000
9.246222	-0.295480	17.828000
9.270536	-0.290945	17.874000
9.295434	-0.284319	17.920000
9.320438	-0.277727	17.966000
9.345319	-0.270085	18.012000
9.370934	-0.261636	18.058000
9.395859	-0.251110	18.104000
9.421192	-0.241661	18.150000
9.444868	-0.231952	18.196000
9.529313	-0.193538	18.241000
9.554783	-0.184965	18.398000
9.579679	-0.173123	18.444000
9.605291	-0.160729	18.490000
9.630170	-0.148929	18.537000
9.655636	-0.134755	18.583000
9.680531	-0.118719	18.629000
9.882732	-0.102966	18.676000
9.907785	-0.001301	19.049000
9.932759	0.004270	19.095000
9.957389	0.006900	19.141000
9.981970	0.004000	19.187000
10.006899	-0.000808	19.234000
10.031924	-0.006935	19.280000
10.116505	-0.041592	19.326000
10.141919	-0.055106	19.482000
10.167301	-0.063649	19.527000
10.192073	-0.068059	19.574000
10.215855	-0.070836	19.619000
10.240810	-0.072656	19.666000
10.266027	-0.074159	19.711000
10.362941	-0.073546	19.757000
10.387649	-0.067633	19.937000
10.412780	-0.063046	19.983000
10.438467	-0.056930	20.030000
10.463137	-0.048929	20.075000
10.488498	-0.040318	20.122000
10.513121	-0.028403	20.167000
10.538560	-0.014140	20.213000
10.562741	0.000142	20.259000
10.587202	0.019138	20.306000
10.612718	0.038510	20.352000
10.709631	0.118129	20.398000
10.734559	0.130452	20.577000
10.759596	0.145903	20.623000
10.785011	0.158090	20.669000
10.809908	0.168257	20.716000
10.835170	0.178191	20.762000
10.860199	0.184854	20.808000
10.884819	0.192466	20.854000
10.968079	0.198517	20.900000
10.993170	0.237221	21.055000
11.018991	0.252121	21.101000
11.043823	0.267577	21.147000
11.068770	0.283801	21.194000
11.094185	0.300343	21.240000
11.118386	0.315735	21.286000
11.142593	0.332308	21.331000
11.167308	0.350035	21.377000
11.192508	0.367452	21.423000
11.218226	0.385098	21.469000
11.305380	0.435459	21.515000
11.330431	0.444975	21.677000
11.356097	0.455455	21.724000
11.380962	0.465955	21.769000
11.406187	0.472022	21.816000
11.431185	0.477130	21.862000
11.455168	0.480181	21.908000
11.480058	0.480335	21.954000
11.564145	0.480415	21.999000
11.589202	0.463777	22.154000
11.614592	0.457736	22.201000
11.639517	0.450198	22.246000
11.664371	0.443061	22.293000
11.688645	0.434810	22.339000
11.713806	0.427050	22.385000
11.738940	0.415534	22.431000
11.763777	0.401551	22.477000
11.788716	0.387682	22.523000
11.814152	0.366732	22.570000
12.016347	0.137389	22.615000
12.040970	0.103119	22.989000
12.066347	0.075856	23.035000
12.150593	0.049843	23.081000
12.175430	-0.030098	23.236000
12.200545	-0.053827	23.284000
12.224802	-0.077279	23.330000
12.249812	-0.099363	23.375000
12.274717	-0.120462	23.421000
12.300298	-0.139804	23.467000
12.324990	-0.162393	23.513000
12.350004	-0.182338	23.559000
12.374221	-0.202337	23.605000
12.399117	-0.222812	23.651000
12.497384	-0.302292	23.697000
12.522398	-0.324409	23.877000
12.546359	-0.342577	23.923000
12.571566	-0.359273	23.969000
12.596491	-0.373758	24.015000
12.621668	-0.392670	24.061000
12.646768	-0.411501	24.107000
12.672329	-0.431236	24.153000
12.870709	-0.448631	24.199000
12.896197	-0.526357	24.566000
12.920471	-0.524982	24.613000
12.945283	-0.522365	24.659000
12.969892	-0.519300	24.705000
12.995311	-0.515587	24.751000
13.092324	-0.491546	24.798000
13.117094	-0.487249	24.977000
13.142621	-0.478908	25.024000
13.167685	-0.467773	25.069000
13.193082	-0.452475	25.116000
13.218171	-0.434235	25.162000
13.243079	-0.415948	25.208000
13.267813	-0.395923	25.254000
13.350919	-0.375729	25.300000
13.376136	-0.307392	25.455000
13.401236	-0.289780	25.500000
13.426452	-0.275121	25.546000
13.451354	-0.259985	25.593000
13.477152	-0.245926	25.640000
13.501111	-0.229044	25.685000
13.525868	-0.212528	25.732000
13.550719	-0.196382	25.777000
13.575511	-0.182078	25.823000
13.600585	-0.168469	25.869000
13.688288	-0.121577	25.915000
13.713499	-0.115266	26.077000
13.738547	-0.107195	26.123000
13.764011	-0.102113	26.169000
13.789097	-0.098099	26.216000
13.813052	-0.099093	26.262000
13.837901	-0.100167	26.307000
13.862812	-0.104726	26.353000
13.947323	-0.113487	26.400000
13.972484	-0.148729	26.554000
13.997557	-0.161199	26.601000
14.022016	-0.173184	26.647000
14.046719	-0.186512	26.693000
14.071507	-0.197008	26.739000
14.096345	-0.210761	26.786000
14.121864	-0.223134	26.831000
14.146333	-0.237097	26.876000
14.171612	-0.251452	26.922000
14.196336	-0.265585	26.969000
14.284662	-0.319895	27.014000
14.310223	-0.336816	27.177000
14.335069	-0.351471	27.224000
14.359718	-0.366016	27.270000
14.384478	-0.381096	27.316000
14.409122	-0.395119	27.363000
14.434252	-0.406743	27.409000
14.459024	-0.417403	27.455000
14.543674	-0.426948	27.501000
14.568566	-0.442086	27.655000
14.592731	-0.441457	27.700000
14.617682	-0.438632	27.748000
14.642375	-0.433604	27.793000
14.667834	-0.427542	27.840000
14.692882	-0.417959	27.885000
14.718350	-0.406049	27.933000
14.743390	-0.395339	27.978000
14.768455	-0.381236	28.024000
14.793319	-0.365966	28.071000
14.995799	-0.218944	28.116000
15.020917	-0.206136	28.489000
15.046114	-0.189446	28.536000
15.129334	-0.175646	28.582000
15.154753	-0.134806	28.737000
15.179949	-0.127730	28.784000
15.204307	-0.118294	28.829000
15.229928	-0.109993	28.875000
15.254821	-0.101832	28.922000
15.280139	-0.090932	28.968000
15.304479	-0.079649	29.013000
15.329188	-0.066870	29.060000
15.354668	-0.055072	29.106000
15.379396	-0.041883	29.152000
15.475961	-0.001008	29.198000
15.500911	0.007734	29.377000
15.526396	0.019727	29.424000
15.551329	0.037374	29.470000
15.576603	0.058093	29.515000
15.601675	0.082553	29.561000
15.626951	0.108014	29.608000
15.651923	0.134215	29.655000
15.849588	0.164608	29.700000
15.874814	0.389960	30.067000
15.899665	0.418498	30.113000
15.924966	0.447839	30.159000
15.949950	0.481035	30.205000
15.975277	0.512772	30.251000
16.072221	0.615588	30.297000
16.097029	0.630738	30.477000
16.122369	0.647430	30.523000
16.147217	0.659242	30.569000
16.172757	0.669643	30.615000
16.196829	0.679848	30.662000
16.221681	0.686915	30.708000
16.246503	0.698513	30.754000
16.330853	0.707273	30.800000
16.356533	0.732157	30.955000
16.381201	0.736276	31.001000
16.406555	0.738585	31.047000
16.430487	0.739519	31.093000
16.455456	0.741144	31.140000
16.480362	0.746506	31.185000
16.505389	0.752899	31.231000
16.530581	0.763749	31.277000
16.556096	0.773889	31.324000
16.580965	0.788112	31.370000
16.668551	0.826853	31.416000
16.693770	0.832434	31.577000
16.718161	0.843405	31.624000
16.742431	0.855019	31.670000
16.767153	0.869857	31.715000
16.792585	0.882152	31.761000
16.818008	0.895755	31.808000
16.842931	0.907216	31.854000
16.926761	0.920449	31.900000
16.951404	0.948313	32.054000
16.975941	0.951661	32.101000
17.000933	0.955855	32.147000
17.025605	0.958818	32.193000
17.051400	0.965060	32.239000
17.075982	0.969969	32.284000
17.101335	0.978914	32.331000
17.126554	0.987267	32.376000
17.150936	0.996937	32.423000
17.175452	1.005916	32.469000
17.264209	1.027244	32.515000
17.288667	1.025706	32.677000
17.312845	1.027759	32.723000
17.338201	1.028390	32.769000
17.362974	1.027759	32.815000
17.388233	1.027414	32.861000
17.413525	1.027364	32.907000
17.438176	1.026833	32.953000
17.521474	1.025376	32.998000
17.546741	1.008579	33.154000
17.571876	1.000901	33.200000
17.597131	0.989369	33.247000
17.622035	0.978372	33.293000
17.647417	0.965284	33.339000
17.672062	0.953462	33.384000
17.697366	0.940049	33.431000
17.721715	0.927405	33.477000
17.746774	0.916800	33.524000
17.771936	0.905391	33.570000
17.974615	0.853654	33.615000
17.998968	0.846183	33.990000
18.023331	0.844948	34.036000
18.108507	0.842670	34.081000
18.133484	0.839791	34.237000
18.158794	0.839126	34.282000
18.183905	0.836559	34.329000
18.208632	0.837623	34.375000
18.233212	0.837763	34.421000
18.257666	0.842261	34.468000
18.283143	0.843948	34.514000
18.308239	0.849636	34.560000
18.333508	0.855310	34.607000
18.358481	0.863240	34.652000
18.455273	0.912676	34.699000
18.480181	0.925414	34.877000
18.505684	0.940825	34.924000
18.530909	0.955179	34.970000
18.555489	0.970620	35.015000
18.579738	0.983838	35.061000
18.604417	0.998208	35.108000
18.629669	1.009755	35.154000
18.828474	1.024229	35.200000
18.853612	1.113236	35.567000
18.878866	1.120135	35.613000
18.903978	1.123949	35.659000
18.929408	1.123559	35.705000
18.954227	1.120979	35.752000
19.051763	1.084395	35.798000
19.076604	1.067283	35.977000
19.101523	1.049875	36.024000
19.126133	1.032323	36.070000
19.150478	1.010560	36.116000
19.176229	0.989489	36.162000
19.200866	0.965444	36.209000
19.226320	0.946194	36.255000
19.310571	0.926910	36.301000
19.335600	0.874229	36.456000
19.359862	0.863481	36.502000
19.384510	0.853694	36.548000
19.409843	0.845974	36.594000
19.434597	0.840595	36.640000
19.459835	0.836737	36.686000
19.485362	0.833143	36.731000
19.510074	0.831770	36.777000
19.535262	0.832825	36.824000
19.559622	0.832765	36.871000
19.647006	0.853945	36.916000
19.671257	0.858182	37.077000
19.696082	0.869143	37.124000
19.721059	0.875949	37.170000
19.746782	0.885954	37.215000
19.771482	0.894630	37.261000
19.796997	0.902841	37.308000
19.821947	0.911821	37.354000
19.904905	0.918707	37.400000
19.929821	0.941115	37.554000
19.955424	0.947782	37.601000
19.980564	0.956516	37.647000
20.005568	0.963733	37.693000
20.030898	0.970965	37.739000
20.055438	0.977938	37.785000
20.079942	0.983518	37.831000
20.104938	0.991260	37.877000
20.129347	0.995621	37.923000
20.154689	1.000335	37.969000
20.242000	1.005384	38.015000
20.267217	1.000690	38.177000
20.292507	0.996496	38.223000
20.317165	0.992707	38.270000
20.342881	0.986475	38.316000
20.367445	0.979238	38.361000
20.392568	0.971636	38.408000
20.416862	0.961110	38.454000
20.500436	0.951019	38.499000
20.526266	0.903785	38.655000
20.551272	0.888417	38.701000
20.576989	0.871071	38.747000
20.601147	0.856484	38.793000
20.626307	0.839095	38.840000
20.650191	0.826237	38.885000
20.675241	0.816946	38.930000
20.700239	0.808470	38.977000
20.725212	0.803644	39.023000
20.750988	0.797100	39.069000
20.952556	0.713979	39.115000
20.978230	0.696944	39.490000
21.003157	0.687065	39.536000
21.087733	0.675258	39.582000
21.112754	0.635617	39.737000
21.137189	0.626679	39.783000
21.162211	0.619191	39.829000
21.186523	0.614696	39.876000
21.212236	0.609406	39.922000
21.237437	0.605207	39.968000
21.262411	0.600301	40.014000
21.287484	0.597505	40.060000
21.312424	0.596378	40.106000
21.337595	0.594811	40.152000
21.434578	0.597344	40.199000
21.459637	0.593604	40.377000
21.483788	0.592989	40.424000
21.508508	0.592759	40.469000
21.533064	0.593184	40.516000
21.558631	0.592138	40.561000
21.583320	0.593705	40.608000
21.608712	0.595887	40.654000
21.807642	0.600532	40.700000
21.832692	0.582802	41.067000
21.858207	0.582752	41.113000
21.882590	0.586297	41.160000
21.907318	0.594511	41.206000
21.931966	0.610777	41.252000
22.029723	0.703321	41.298000
22.054181	0.726359	41.477000
22.079283	0.752367	41.524000
22.104506	0.776337	41.570000
22.129773	0.799419	41.616000
22.155009	0.822284	41.662000
22.180059	0.841224	41.708000
22.205019	0.860851	41.755000
22.287618	0.878257	41.800000
22.312868	0.923281	41.955000
22.338263	0.930088	42.001000
22.362981	0.934642	42.047000
22.388148	0.939407	42.092000
22.413094	0.940864	42.139000
22.437507	0.943206	42.184000
22.462217	0.945529	42.230000
22.486385	0.946885	42.276000
22.512286	0.949572	42.323000
22.537365	0.952937	42.369000
22.625250	0.977971	42.415000
22.650461	0.982665	42.577000
22.675855	0.994447	42.624000
22.700801	1.003091	42.669000
22.725358	1.012201	42.715000
22.750492	1.020650	42.760000
22.774081	1.029074	42.806000
22.799067	1.036512	42.852000
22.883316	1.041096	42.897000
22.908337	1.046957	43.052000
22.933848	1.048919	43.099000
22.958257	1.052668	43.144000
22.983140	1.056067	43.191000
23.007312	1.063799	43.237000
23.032765	1.072493	43.283000
23.057637	1.079359	43.329000
23.083084	1.088033	43.375000
23.108065	1.098019	43.421000
23.133067	1.107999	43.467000
23.221746	1.138790	43.513000
23.246943	1.144291	43.677000
23.272149	1.150133	43.724000
23.297065	1.156066	43.769000
23.321625	1.158154	43.816000
23.345783	1.157709	43.862000
23.370968	1.153192	43.908000
23.396439	1.143646	43.954000
23.480182	1.136824	44.000000
23.505690	1.114153	44.155000
23.530336	1.109913	44.201000
23.554825	1.110013	44.247000
23.579168	1.110554	44.293000
23.604272	1.111961	44.338000
23.629739	1.113378	44.385000
23.654754	1.115559	44.431000
23.680066	1.113077	44.477000
23.704827	1.113752	44.522000
23.729770	1.113622	44.569000
23.932119	1.129362	44.614000
23.957571	1.128981	44.990000
23.982725	1.132000	45.036000
24.066109	1.133489	45.082000
24.090915	1.143065	45.237000
24.116004	1.143095	45.283000
24.141146	1.140736	45.330000
24.166156	1.139611	45.376000
24.191475	1.136248	45.422000
24.216749	1.129975	45.468000
24.241250	1.121658	45.513000
24.266356	1.112149	45.560000
24.290468	1.100862	45.606000
24.315612	1.087573	45.651000
24.413409	1.039399	45.697000
24.437833	1.022872	45.877000
24.462850	1.012421	45.924000
24.487729	0.998527	45.970000
24.513262	0.985558	46.016000
24.538413	0.970298	46.062000
24.563753	0.955793	46.108000
24.588143	0.941144	46.154000
24.786867	0.924207	46.200000
24.811086	0.803521	46.567000
24.836239	0.790249	46.613000
24.861190	0.775380	46.660000
24.886090	0.762401	46.705000
24.911591	0.750911	46.751000
25.007992	0.717323	46.797000
25.033787	0.713369	46.977000
25.058714	0.715497	47.024000
25.084129	0.720876	47.070000
25.109177	0.728677	47.116000
25.133971	0.739838	47.161000
25.158455	0.750107	47.207000
25.182633	0.761008	47.254000
25.267502	0.774306	47.300000
25.292489	0.811343	47.455000
25.317817	0.823882	47.501000
25.342931	0.835476	47.547000
25.368148	0.848240	47.594000
25.391928	0.859904	47.639000
25.416771	0.871709	47.685000
25.441609	0.884309	47.731000
25.467015	0.894319	47.777000
25.492213	0.904315	47.824000
25.517372	0.912324	47.869000
25.604704	0.927637	47.915000
25.630129	0.921455	48.076000
25.655088	0.919403	48.124000
25.679810	0.913362	48.170000
25.704564	0.907561	48.215000
25.728911	0.902922	48.261000
25.753690	0.897529	48.307000
25.779209	0.892502	48.354000
25.863521	0.886999	48.400000
25.888181	0.864714	48.554000
25.912816	0.855573	48.600000
25.937286	0.846508	48.647000
25.962183	0.835958	48.693000
25.987615	0.823330	48.739000
26.012774	0.813089	48.785000
26.037694	0.800635	48.831000
26.062638	0.791939	48.876000
26.087602	0.784008	48.922000
26.112244	0.778557	48.969000
26.200683	0.770115	49.014000
26.225107	0.764812	49.177000
26.250237	0.763812	49.223000
26.274707	0.759475	49.270000
26.299337	0.756866	49.316000
26.325178	0.752168	49.362000
26.349775	0.749166	49.408000
26.375291	0.744197	49.454000
26.458868	0.741287	49.499000
26.483021	0.738145	49.655000
26.508474	0.737281	49.701000
26.533277	0.737600	49.747000
26.558559	0.737460	49.792000
26.583853	0.739858	49.839000
26.609137	0.742702	49.885000
26.634251	0.748270	49.932000
26.659099	0.753932	49.978000
26.683611	0.758850	50.024000
26.708012	0.764103	50.070000
26.911380	0.769733	50.116000
26.936078	0.764896	50.490000
26.960607	0.761068	50.535000
27.044517	0.757105	50.581000
27.069388	0.743341	50.737000
27.094690	0.739298	50.782000
27.119549	0.738053	50.829000
27.144970	0.734065	50.875000
27.169131	0.732451	50.921000
27.193841	0.729942	50.967000
27.218683	0.726768	51.013000
27.243977	0.721280	51.059000
27.269021	0.716318	51.105000
27.294411	0.710520	51.151000
27.391480	0.694333	51.197000
27.416505	0.684838	51.377000
27.441749	0.679832	51.424000
27.466673	0.672926	51.470000
27.491893	0.667225	51.515000
27.516214	0.661564	51.561000
27.540582	0.655413	51.606000
27.565263	0.650708	51.653000
27.764136	0.644192	51.699000
27.789380	0.612950	52.066000
27.814558	0.613921	52.112000
27.839681	0.618901	52.158000
27.864024	0.624592	52.203000
27.888903	0.631779	52.249000
27.913629	0.644372	52.295000
27.998202	0.706374	52.341000
28.023579	0.726039	52.498000
28.048208	0.748664	52.544000
28.073762	0.773448	52.590000
28.098558	0.795112	52.636000
28.123823	0.818512	52.682000
28.147986	0.840817	52.728000
28.236876	0.860812	52.774000
28.261643	0.932381	52.936000
28.285487	0.951581	52.982000
28.310425	0.970595	53.028000
28.335566	0.987442	53.073000
28.360579	1.004734	53.121000
28.385887	1.019285	53.166000
28.410794	1.034796	53.212000
28.435723	1.050357	53.259000
28.460165	1.062018	53.304000
28.484542	1.075452	53.350000
28.509527	1.087293	53.396000
28.594523	1.114766	53.443000
28.619857	1.114562	53.599000
28.644512	1.119815	53.645000
28.670284	1.125378	53.690000
28.694877	1.132254	53.737000
28.719573	1.140796	53.784000
28.744324	1.151486	53.830000
28.831827	1.166704	53.876000
28.856706	1.219508	54.037000
28.882082	1.234191	54.083000
28.907461	1.248136	54.130000
28.931988	1.259380	54.176000
28.957828	1.270934	54.222000
28.982547	1.277950	54.268000
29.006767	1.285558	54.314000
29.031209	1.292134	54.360000
29.055965	1.297362	54.406000
29.081472	1.299611	54.452000
29.178731	1.316868	54.497000
29.203750	1.317832	54.678000
29.228695	1.322870	54.724000
29.254161	1.328713	54.770000
29.279025	1.334776	54.816000
29.304628	1.341168	54.863000
29.329582	1.347914	54.908000
29.354617	1.356077	54.955000
29.437131	1.362544	55.001000
29.462675	1.379712	55.156000
29.487690	1.383441	55.202000
29.513005	1.389452	55.249000
29.538207	1.396329	55.294000
29.562829	1.405247	55.340000
29.587825	1.413006	55.386000
29.612268	1.421724	55.432000
29.636396	1.432490	55.478000
29.662239	1.442146	55.524000
29.686813	1.452361	55.570000
29.889708	1.558055	55.615000
29.914001	1.568665	55.989000
29.938899	1.578960	56.036000
30.023515	1.588396	56.082000
30.048740	1.604569	56.237000
30.073804	1.604750	56.283000
30.098141	1.606014	56.329000
30.123037	1.605573	56.375000
30.147461	1.605804	56.422000
30.172730	1.604948	56.468000
30.197817	1.602549	56.513000
30.223193	1.600351	56.560000
30.248318	1.597922	56.606000
30.273735	1.595978	56.653000
30.370199	1.586217	56.699000
30.395283	1.580469	56.877000
30.420698	1.578180	56.924000
30.445256	1.576092	56.970000
30.469475	1.573863	57.016000
30.494277	1.573523	57.062000
30.519736	1.570470	57.109000
30.544911	1.567246	57.155000
30.743355	1.564937	57.200000
30.768607	1.542981	57.566000
30.793644	1.541466	57.613000
30.818711	1.537467	57.659000
30.843292	1.532451	57.706000
30.867395	1.524007	57.751000
30.966494	1.466260	57.797000
30.990699	1.443166	57.977000
31.014866	1.428776	58.023000
31.039868	1.413936	58.069000
31.064699	1.400092	58.114000
31.089847	1.386773	58.161000
31.115363	1.375072	58.207000
31.139968	1.364637	58.253000
31.223106	1.350907	58.299000
31.247849	1.295932	58.454000
31.273420	1.278296	58.500000
31.298737	1.259645	58.546000
31.323548	1.242982	58.592000
31.349081	1.224462	58.638000
31.374108	1.209250	58.683000
31.398867	1.191584	58.730000
31.423291	1.174430	58.777000
31.447944	1.157244	58.823000
31.472992	1.140642	58.869000
31.561227	1.092374	58.915000
31.586521	1.075032	59.077000
31.611254	1.063230	59.124000
31.636645	1.049811	59.170000
31.661398	1.037343	59.216000
31.686194	1.022618	59.262000
31.711488	1.007081	59.308000
31.736384	0.992632	59.354000
31.819738	0.977341	59.399000
31.844491	0.935974	59.554000
31.869416	0.924163	59.600000
31.895042	0.916705	59.646000
31.919669	0.904454	59.692000
31.944717	0.893271	59.738000
31.968596	0.880562	59.784000
31.993336	0.864713	59.830000
32.018434	0.849041	59.876000
32.043740	0.830654	59.922000
32.069489	0.814912	59.968000
32.192845	0.735494	60.015000
32.218306	0.728907	60.244000
32.243358	0.727193	60.291000
32.268859	0.722535	60.337000
32.294173	0.716903	60.383000
32.319029	0.711210	60.429000
32.406121	0.704618	60.476000
32.431587	0.688465	60.637000
32.455963	0.684557	60.683000
32.480938	0.682936	60.729000
32.505114	0.676975	60.774000
32.530450	0.674473	60.820000
32.555349	0.671319	60.867000
32.580331	0.667840	60.913000
32.606044	0.664692	60.960000
32.630912	0.659412	61.005000
32.655775	0.654922	61.051000
32.867662	0.595245	61.097000
32.892698	0.584503	61.490000
32.918138	0.577686	61.536000
33.038315	0.571915	61.582000
33.063667	0.540803	61.804000
33.088580	0.535243	61.850000
33.112910	0.532770	61.897000
33.137716	0.527430	61.943000
33.162587	0.522054	61.989000
33.188066	0.516945	62.035000
33.213148	0.511769	62.081000
33.238504	0.506904	62.127000
33.263425	0.502180	62.172000
33.348808	0.498116	62.218000
33.373621	0.494207	62.377000
33.398170	0.496760	62.423000
33.423041	0.498861	62.470000
33.448381	0.499292	62.515000
33.473057	0.503045	62.561000
33.498401	0.507425	62.607000
33.523176	0.512340	62.653000
33.721958	0.516575	62.699000
33.745785	0.575023	63.065000
33.770602	0.586036	63.111000
33.795470	0.595705	63.158000
33.820311	0.609024	63.204000
33.845720	0.622157	63.250000
33.871244	0.636862	63.296000
33.955754	0.687488	63.342000
33.980426	0.698631	63.497000
34.004717	0.712747	63.544000
34.029762	0.729339	63.590000
34.054760	0.746372	63.636000
34.080296	0.763123	63.682000
34.105655	0.780591	63.728000
34.192935	0.795873	63.774000
34.218452	0.856533	63.936000
34.243254	0.871206	63.983000
34.268383	0.888873	64.029000
34.293366	0.905780	64.075000
34.317814	0.919459	64.121000
34.342574	0.934248	64.167000
34.367695	0.947518	64.214000
34.392978	0.962076	64.260000
34.418375	0.973624	64.307000
34.443516	0.985476	64.353000
34.540308	1.017169	64.399000
34.564995	1.019420	64.578000
34.590704	1.023414	64.624000
34.615544	1.026638	64.670000
34.640600	1.029696	64.716000
34.665986	1.030541	64.763000
34.689993	1.032674	64.809000
34.714600	1.032288	64.855000
34.798683	1.031547	64.901000
34.824200	1.010236	65.056000
34.849191	1.003138	65.102000
34.874442	0.993769	65.148000
34.898299	0.983818	65.194000
34.922760	0.973443	65.239000
34.948296	0.962186	65.286000
34.973490	0.953843	65.332000
34.999006	0.941135	65.378000
35.024258	0.929523	65.425000
35.048918	0.918678	65.471000
35.136198	0.895200	65.517000
35.161285	0.887943	65.677000
35.186348	0.884640	65.724000
35.210482	0.881930	65.770000
35.235546	0.879782	65.816000
35.260236	0.878114	65.863000
35.285615	0.877088	65.908000
35.310267	0.874400	65.954000
35.394478	0.872152	66.000000
35.419595	0.864189	66.155000
35.444263	0.859223	66.201000
35.468850	0.852900	66.247000
35.493740	0.846867	66.293000
35.519307	0.839207	66.339000
35.544313	0.830080	66.385000
35.569188	0.823459	66.431000
35.594221	0.814724	66.476000
35.618305	0.808862	66.523000
35.643030	0.802118	66.568000
35.847087	0.773703	66.614000
35.872489	0.769015	66.991000
35.897491	0.771404	67.037000
35.979969	0.772558	67.082000
36.005435	0.776858	67.236000
36.030111	0.775834	67.283000
36.055236	0.775283	67.329000
36.080683	0.776237	67.375000
36.105628	0.774687	67.422000
36.130476	0.775233	67.468000
36.154633	0.772854	67.513000
36.179873	0.770805	67.560000
36.204967	0.768316	67.606000
36.230038	0.761908	67.652000
36.326927	0.740439	67.698000
36.352290	0.729389	67.878000
36.377342	0.723907	67.924000
36.402586	0.718909	67.971000
36.428221	0.717965	68.017000
36.453377	0.716869	68.063000
36.478245	0.716089	68.109000
36.502701	0.714790	68.154000
36.701222	0.712576	68.200000
36.725694	0.663353	68.568000
36.751050	0.654809	68.614000
36.775952	0.648133	68.660000
36.800934	0.640945	68.707000
36.826601	0.635515	68.753000
36.923063	0.626511	68.799000
36.948057	0.627553	68.977000
36.973117	0.633748	69.024000
36.998787	0.643869	69.070000
37.023443	0.657492	69.116000
37.047835	0.673718	69.161000
37.072387	0.694663	69.208000
37.097366	0.714720	69.254000
37.181700	0.738384	69.300000
37.206667	0.820595	69.455000
37.232337	0.843364	69.501000
37.256471	0.863450	69.547000
37.280947	0.884590	69.593000
37.305860	0.906210	69.639000
37.330839	0.927736	69.685000
37.355910	0.951005	69.731000
37.380682	0.975375	69.777000
37.406126	0.998758	69.823000
37.430909	1.023119	69.869000
37.519921	1.088315	69.914000
37.544877	1.093120	70.077000
37.569883	1.096208	70.124000
37.594720	1.098276	70.170000
37.619107	1.096579	70.217000
37.644140	1.098195	70.263000
37.669242	1.099516	70.309000
37.694874	1.100378	70.355000
37.779380	1.101233	70.401000
37.803837	1.105193	70.556000
37.828581	1.107034	70.602000
37.853157	1.107374	70.648000
37.878001	1.111384	70.694000
37.902515	1.115576	70.740000
37.928720	1.120214	70.786000
37.953537	1.125995	70.832000
37.978013	1.132713	70.877000
38.003334	1.136297	70.923000
38.028578	1.136237	70.970000
38.115889	1.137842	71.016000
38.140291	1.132340	71.178000
38.164975	1.134549	71.223000
38.189711	1.137146	71.270000
38.215374	1.140331	71.316000
38.240718	1.146163	71.361000
38.265148	1.152454	71.408000
38.290315	1.162515	71.454000
38.373108	1.169272	71.500000
38.398409	1.177483	71.655000
38.423492	1.178003	71.700000
38.447733	1.177713	71.746000
38.473077	1.180262	71.792000
38.498425	1.181006	71.838000
38.523988	1.184740	71.884000
38.547307	1.187579	71.930000
38.572759	1.195400	71.977000
38.597664	1.203791	72.022000
38.622152	1.215696	72.068000
38.826251	1.331569	72.114000
38.851718	1.344976	72.490000
38.875571	1.361192	72.536000
38.959528	1.374821	72.583000
38.984991	1.404085	72.737000
39.010289	1.407684	72.784000
39.035864	1.409896	72.830000
39.060516	1.410317	72.876000
39.084162	1.408399	72.922000
39.109302	1.408419	72.968000
39.134519	1.405957	73.014000
39.159329	1.406598	73.060000
39.184312	1.405787	73.106000
39.210313	1.407313	73.152000
39.306763	1.416322	73.198000
39.332042	1.416242	73.378000
39.357435	1.422995	73.425000
39.382533	1.431318	73.470000
39.406924	1.442345	73.517000
39.431254	1.455433	73.562000
39.456552	1.470563	73.608000
39.481285	1.483501	73.654000
39.679948	1.499323	73.700000
39.705550	1.589304	74.067000
39.730121	1.596745	74.113000
39.754939	1.603277	74.158000
39.780775	1.607626	74.205000
39.805070	1.613127	74.252000
39.902980	1.627261	74.297000
39.928620	1.626196	74.478000
39.953314	1.625812	74.525000
39.977970	1.624577	74.571000
40.002604	1.621449	74.617000
40.027817	1.618755	74.663000
40.052154	1.614112	74.709000
40.078220	1.607866	74.755000
40.162258	1.601203	74.802000
40.187014	1.570132	74.957000
40.212439	1.558913	75.003000
40.236331	1.546083	75.049000
40.261052	1.534538	75.095000
40.287364	1.522555	75.141000
40.312235	1.511104	75.187000
40.337226	1.500749	75.234000
40.362147	1.490358	75.279000
40.387506	1.481920	75.326000
40.411556	1.473055	75.372000
40.498982	1.451844	75.418000
40.523108	1.442070	75.578000
40.547365	1.437523	75.623000
40.573688	1.433680	75.670000
40.598406	1.429561	75.717000
40.623734	1.426193	75.763000
40.648801	1.419961	75.809000
40.674230	1.416252	75.855000
40.757019	1.411958	75.901000
40.781833	1.399230	76.056000
40.806485	1.394836	76.101000
40.831637	1.391067	76.147000
40.856977	1.387913	76.193000
40.882240	1.383249	76.239000
40.906305	1.380837	76.285000
40.932271	1.377003	76.332000
40.956063	1.377013	76.376000
40.980615	1.378169	76.424000
41.005663	1.378484	76.469000
41.093435	1.384354	76.515000
41.118445	1.378733	76.678000
41.144288	1.377848	76.724000
41.169194	1.374439	76.770000
41.193624	1.372408	76.816000
41.219744	1.369424	76.862000
41.244108	1.366902	76.908000
41.267761	1.363524	76.954000
41.352445	1.358929	77.000000
41.377182	1.348594	77.154000
41.402383	1.345295	77.200000
41.427785	1.342222	77.247000
41.452222	1.337938	77.292000
41.476667	1.334550	77.339000
41.501984	1.331989	77.385000
41.526237	1.326940	77.431000
41.551323	1.320623	77.477000
41.576951	1.311118	77.522000
41.601731	1.303522	77.568000
41.804324	1.244579	77.614000
41.829722	1.234771	77.990000
41.854881	1.227554	78.037000
41.938335	1.222736	78.083000
41.963810	1.207334	78.237000
41.987778	1.206728	78.282000
42.012142	1.210868	78.328000
42.038082	1.217160	78.374000
42.062711	1.227514	78.421000
42.088116	1.238244	78.467000
42.113234	1.250048	78.513000
42.138912	1.262456	78.559000
42.163295	1.274361	78.604000
42.187613	1.286809	78.651000
42.285900	1.327755	78.697000
42.310476	1.334600	78.878000
42.335366	1.343830	78.924000
42.360410	1.354595	78.969000
42.384260	1.361552	79.015000
42.409462	1.371798	79.061000
42.435132	1.379560	79.107000
42.460019	1.390726	79.153000
42.658129	1.400822	79.199000
42.683961	1.531975	79.566000
42.708444	1.555359	79.611000
42.732555	1.576419	79.658000
42.757626	1.601243	79.703000
42.782697	1.620745	79.750000
42.807722	1.644427	79.796000
42.892632	1.707896	79.842000
42.917569	1.725063	79.998000
42.942651	1.746777	80.044000
42.967442	1.763224	80.090000
42.991410	1.779346	80.137000
43.016658	1.788705	80.183000
43.042432	1.795001	80.228000
43.129152	1.793030	80.275000
43.155126	1.746807	80.437000
43.180189	1.727851	80.483000
43.205302	1.705711	80.530000
43.229997	1.685686	80.576000
43.255579	1.660489	80.622000
43.280312	1.636396	80.668000
43.304496	1.612927	80.714000
43.329997	1.588634	80.760000
43.355030	1.566598	80.806000
43.380032	1.543458	80.853000
43.476621	1.470793	80.898000
43.502291	1.453110	81.077000
43.526797	1.438640	81.124000
43.552337	1.423549	81.170000
43.577716	1.412288	81.216000
43.602868	1.398549	81.263000
43.627074	1.388655	81.309000
43.651992	1.378934	81.354000
43.735676	1.368944	81.400000
43.760747	1.346152	81.556000
43.785926	1.342082	81.602000
43.810713	1.342482	81.648000
43.835680	1.345156	81.694000
43.861216	1.354314	81.740000
43.885158	1.363594	81.786000
43.909795	1.376482	81.832000
43.935653	1.389801	81.877000
43.960102	1.402078	81.924000
43.985715	1.415967	81.971000
44.073264	1.455632	82.017000
44.097890	1.459471	82.178000
44.122757	1.461554	82.224000
44.148378	1.463150	82.270000
44.172707	1.467114	82.315000
44.196472	1.468851	82.362000
44.221904	1.472019	82.408000
44.246960	1.474692	82.453000
44.331282	1.480978	82.500000
44.356415	1.495272	82.655000
44.381117	1.499626	82.701000
44.405489	1.500943	82.747000
44.430453	1.503031	82.793000
44.455293	1.504307	82.839000
44.480407	1.500257	82.884000
44.505873	1.496619	82.931000
44.530818	1.490002	82.977000
44.555562	1.483095	83.023000
44.580664	1.477609	83.068000
44.783208	1.442894	83.114000
44.808509	1.433650	83.491000
44.834011	1.428164	83.537000
44.917707	1.420662	83.582000
44.941952	1.377102	83.738000
44.967361	1.366126	83.783000
44.991760	1.349749	83.829000
45.017365	1.335235	83.875000
45.042697	1.319543	83.921000
45.067396	1.301822	83.967000
45.092501	1.283255	84.012000
45.117957	1.264334	84.059000
45.141894	1.247872	84.105000
45.166693	1.229191	84.152000
45.265295	1.171006	84.198000
45.289947	1.151704	84.377000
45.314542	1.139629	84.423000
45.340043	1.126731	84.470000
45.365272	1.114792	84.516000
45.389924	1.102914	84.562000
45.415253	1.090416	84.609000
45.440792	1.081378	84.654000
45.639279	1.071627	84.701000
45.663678	1.032308	85.068000
45.688645	1.027888	85.114000
45.712660	1.026651	85.161000
45.738012	1.024155	85.206000
45.763732	1.023194	85.252000
45.860501	1.033304	85.299000
45.885215	1.033949	85.478000
45.911366	1.039460	85.524000
45.935907	1.045631	85.570000
45.960901	1.053229	85.616000
45.985845	1.057563	85.661000
46.010613	1.063655	85.708000
46.034647	1.065837	85.754000
46.119026	1.067719	85.800000
46.144532	1.070221	85.954000
46.168915	1.076493	86.000000
46.194678	1.084476	86.047000
46.218946	1.095001	86.093000
46.242665	1.108795	86.138000
46.268258	1.119913	86.185000
46.292965	1.135551	86.231000
46.318355	1.153983	86.276000
46.343314	1.175624	86.323000
46.369119	1.199382	86.369000
46.456161	1.310898	86.415000
46.482020	1.342092	86.578000
46.507287	1.373154	86.624000
46.531801	1.403684	86.671000
46.556926	1.429350	86.717000
46.582028	1.452334	86.763000
46.606196	1.470953	86.809000
46.631190	1.487290	86.855000
46.715220	1.500057	86.901000
46.740749	1.531304	87.056000
46.765870	1.539213	87.102000
46.790461	1.542659	87.148000
46.814249	1.547707	87.193000
46.839881	1.550721	87.239000
46.864898	1.550971	87.286000
46.889374	1.553270	87.332000
46.914472	1.553891	87.377000
46.939693	1.556153	87.423000
46.964725	1.554525	87.469000
47.052962	1.545882	87.515000
47.077956	1.534952	87.678000
47.102286	1.532245	87.724000
47.126685	1.526164	87.770000
47.151948	1.520143	87.816000
47.176731	1.513075	87.863000
47.201963	1.505072	87.908000
47.227657	1.497504	87.955000
47.311533	1.486524	88.000000
47.336512	1.454016	88.155000
47.360312	1.446514	88.202000
47.385564	1.439331	88.247000
47.411011	1.432233	88.294000
47.436155	1.426002	88.340000
47.460938	1.419035	88.386000
47.486205	1.411567	88.433000
47.511572	1.407393	88.478000
47.535264	1.403264	88.524000
47.559575	1.401251	88.569000
47.763762	1.403113	88.615000
47.788499	1.403924	88.990000
47.813102	1.409896	89.036000
47.896383	1.415726	89.082000
47.921669	1.433764	89.237000
47.946867	1.436106	89.283000
47.972268	1.439831	89.330000
47.996533	1.442604	89.376000
48.021646	1.443720	89.421000
48.046371	1.445077	89.467000
48.070970	1.443640	89.513000
48.096133	1.444726	89.560000
48.121439	1.446113	89.606000
48.146602	1.448435	89.652000
48.243141	1.462759	89.698000
48.269184	1.465467	89.878000
48.293948	1.472464	89.925000
48.319000	1.477054	89.971000
48.343694	1.482555	90.016000
48.369726	1.485602	90.063000
48.393552	1.488816	90.109000
48.418328	1.490147	90.155000
48.616945	1.492469	90.201000
48.641847	1.526414	90.568000
48.667909	1.530969	90.614000
48.692600	1.536809	90.660000
48.717571	1.540628	90.706000
48.742473	1.544917	90.753000
48.839780	1.547959	90.799000
48.865236	1.543137	90.978000
48.889646	1.539072	91.024000
48.915213	1.532074	91.070000
48.939066	1.522675	91.116000
48.963219	1.512905	91.162000
48.989139	1.502119	91.209000
49.014199	1.488921	91.254000
49.097653	1.472374	91.300000
49.123154	1.405515	91.454000
49.147468	1.385530	91.500000
49.171310	1.366106	91.547000
49.197088	1.348534	91.593000
49.221383	1.332111	91.638000
49.246973	1.313126	91.684000
49.272486	1.298193	91.730000
49.297092	1.283126	91.776000
49.322286	1.267798	91.822000
49.346912	1.254839	91.869000
49.436132	1.220595	91.915000
49.460362	1.210867	92.078000
49.485975	1.207404	92.125000
49.509824	1.205879	92.171000
49.534887	1.201965	92.217000
49.560104	1.199321	92.263000
49.585368	1.197397	92.309000
49.610423	1.195932	92.355000
49.694150	1.195399	92.401000
49.718806	1.193559	92.555000
49.742855	1.194613	92.602000
49.768564	1.194928	92.648000
49.793547	1.193804	92.694000
49.818518	1.193120	92.740000
49.844166	1.193904	92.786000
49.869383	1.193220	92.832000
49.893858	1.189196	92.879000
49.918469	1.184158	92.925000
49.943686	1.177311	92.970000
50.031193	1.145862	93.016000
50.056072	1.130003	93.178000
50.080551	1.115904	93.224000
50.105511	1.101777	93.270000
50.131216	1.085942	93.317000
50.156129	1.070401	93.362000
50.180336	1.054690	93.408000
50.205461	1.041246	93.454000
50.288316	1.025465	93.500000
50.313917	0.976590	93.655000
50.339053	0.966550	93.701000
50.364194	0.956670	93.747000
50.388950	0.949653	93.793000
50.414428	0.942586	93.839000
50.438688	0.941065	93.884000
50.463064	0.939998	93.931000
50.488447	0.940474	93.976000
50.513345	0.938682	94.022000
50.537959	0.936450	94.068000
50.741666	0.934322	94.114000
50.767099	0.933737	94.491000
50.791225	0.941275	94.537000
50.875908	0.948517	94.583000
50.901117	0.971254	94.738000
50.925747	0.979257	94.783000
50.951874	0.987641	94.829000
50.975474	0.996495	94.876000
50.999615	1.003603	94.922000
51.025451	1.009704	94.968000
51.050261	1.014465	95.014000
51.075547	1.020500	95.060000
51.100345	1.026862	95.107000
51.125901	1.032722	95.152000
51.221882	1.047461	95.199000
51.247918	1.042897	95.378000
51.272824	1.043428	95.424000
51.297806	1.042082	95.470000
51.321690	1.039408	95.516000
51.346838	1.035325	95.563000
51.372128	1.030870	95.609000
51.396735	1.024780	95.654000
51.596389	1.016781	95.701000
51.621023	0.981014	96.068000
51.646128	0.977900	96.114000
51.671096	0.976159	96.160000
51.696628	0.974187	96.207000
51.720742	0.973051	96.253000
51.818341	0.971504	96.298000
51.843501	0.969012	96.477000
51.867304	0.974017	96.523000
51.891622	0.978021	96.569000
51.916939	0.982895	96.615000
51.941999	0.991059	96.660000
51.967105	1.000929	96.706000
51.992533	1.012366	96.753000
52.074650	1.024619	96.799000
52.099963	1.069495	96.953000
52.125637	1.084194	96.999000
52.150290	1.099033	97.046000
52.176164	1.113404	97.091000
52.201158	1.126770	97.138000
52.225949	1.138644	97.184000
52.250785	1.151463	97.231000
52.275845	1.162464	97.277000
52.299825	1.175906	97.322000
52.324819	1.187077	97.368000
52.414021	1.231360	97.414000
52.438312	1.238887	97.577000
52.463264	1.248936	97.624000
52.488815	1.258652	97.670000
52.513848	1.266703	97.716000
52.539372	1.273046	97.763000
52.565204	1.280201	97.809000
52.590413	1.286254	97.856000
52.673191	1.292150	97.902000
52.698220	1.314171	98.057000
52.723260	1.323366	98.103000
52.747967	1.334764	98.149000
52.773733	1.348827	98.195000
52.798962	1.364739	98.241000
52.823418	1.381486	98.287000
52.848985	1.400025	98.333000
52.872719	1.422422	98.380000
52.897725	1.445157	98.426000
52.922923	1.468510	98.471000
53.009919	1.569051	98.518000
53.034913	1.596334	98.678000
53.060376	1.626919	98.724000
53.085662	1.656144	98.771000
53.110145	1.686066	98.817000
53.135685	1.712527	98.863000
53.159700	1.732248	98.909000
53.184322	1.749435	98.955000
53.268886	1.759975	99.001000
53.293792	1.770651	99.155000
53.318794	1.768289	99.201000
53.343815	1.765135	99.247000
53.367457	1.761917	99.293000
53.392390	1.757055	99.339000
53.417599	1.752969	99.385000
53.442259	1.749624	99.431000
53.467557	1.746826	99.476000
53.492597	1.743143	99.522000
53.517269	1.739579	99.567000
53.720043	1.662646	99.613000
53.745890	1.639977	99.991000
53.771019	1.619942	100.036000
53.854077	1.598872	100.083000
53.879394	1.525692	100.237000
53.903328	1.505486	100.283000
53.929290	1.485086	100.329000
53.954346	1.467617	100.375000
53.979167	1.450846	100.422000
54.004189	1.435520	100.468000
54.029859	1.418652	100.514000
54.054834	1.400729	100.560000
54.078680	1.379989	100.606000
54.103490	1.357771	100.652000
54.202426	1.290161	100.698000
54.225653	1.272354	100.878000
54.250897	1.260680	100.924000
54.276010	1.249960	100.971000
54.301292	1.242400	101.016000
54.326302	1.233608	101.063000
54.352065	1.225487	101.108000
54.376610	1.215532	101.155000
54.575357	1.206431	101.201000
54.600890	1.124711	101.568000
54.625181	1.116917	101.614000
54.649353	1.112553	101.660000
54.674943	1.110811	101.706000
54.700098	1.109749	101.753000
54.796975	1.118989	101.799000
54.822331	1.117714	101.979000
54.847571	1.120887	102.025000
54.871927	1.122452	102.071000
54.897271	1.121871	102.117000
54.922849	1.122432	102.163000
54.948278	1.123867	102.210000
54.972316	1.125736	102.256000
55.055666	1.130763	102.301000
55.081002	1.163648	102.456000
55.106803	1.177182	102.503000
55.131693	1.193109	102.549000
55.156338	1.206803	102.595000
55.182024	1.222919	102.641000
55.207460	1.237851	102.688000
55.231578	1.252480	102.733000
55.255920	1.269193	102.780000
55.281728	1.283695	102.826000
55.306511	1.296315	102.872000
55.392823	1.327785	102.919000
55.418117	1.333277	103.078000
55.442259	1.344524	103.123000
55.467664	1.359254	103.169000
55.492270	1.374955	103.214000
55.516008	1.391722	103.260000
55.540722	1.411787	103.307000
55.565962	1.430516	103.352000
55.650396	1.448406	103.399000
55.675544	1.484466	103.553000
55.700527	1.494711	103.599000
55.723938	1.503425	103.645000
55.749674	1.515538	103.691000
55.774856	1.528446	103.737000
55.799344	1.540528	103.784000
55.824757	1.552166	103.829000
55.850627	1.566572	103.876000
55.875237	1.578857	103.922000
55.899931	1.593400	103.968000
55.989363	1.629249	104.014000
56.013881	1.632502	104.178000
56.039213	1.636596	104.225000
56.064530	1.637380	104.270000
56.088845	1.635542	104.316000
56.113470	1.632377	104.363000
56.138530	1.627589	104.409000
56.163343	1.621499	104.455000
56.247762	1.614382	104.501000
56.272691	1.580566	104.656000
56.297151	1.571601	104.702000
56.321446	1.561675	104.748000
56.346721	1.551706	104.794000
56.371442	1.542438	104.840000
56.396767	1.531794	104.886000
56.421930	1.520778	104.931000
56.446506	1.510062	104.977000
56.471519	1.495012	105.023000
56.495591	1.480688	105.068000
56.699142	1.327314	105.114000
56.724839	1.311011	105.491000
56.750283	1.302107	105.537000
56.832557	1.293846	105.583000
56.858101	1.281911	105.738000
56.883422	1.282312	105.784000
56.908032	1.284711	105.830000
56.933525	1.286004	105.877000
56.959073	1.289992	105.922000
56.983614	1.292791	105.968000
57.008389	1.295060	106.015000
57.032819	1.301816	106.060000
57.057248	1.304979	106.106000
57.082227	1.307498	106.152000
57.180014	1.317134	106.199000
57.204855	1.314060	106.378000
57.229419	1.314965	106.425000
57.255289	1.317154	106.470000
57.280253	1.318489	106.516000
57.305097	1.320157	106.562000
57.330084	1.320788	106.608000
57.355535	1.320677	106.655000
57.552843	1.322576	106.701000
57.578555	1.323466	107.068000
57.603254	1.319804	107.114000
57.627898	1.316020	107.160000
57.652947	1.312406	107.206000
57.678521	1.307939	107.252000
57.775924	1.291715	107.297000
57.800684	1.284659	107.478000
57.826454	1.282665	107.525000
57.851187	1.280336	107.571000
57.876174	1.278629	107.617000
57.901587	1.277224	107.664000
57.926424	1.276843	107.709000
57.950485	1.275363	107.756000
58.034814	1.274169	107.801000
58.060385	1.266113	107.957000
58.084791	1.261636	108.003000
58.110865	1.258693	108.049000
58.135026	1.254339	108.094000
58.159348	1.251166	108.141000
58.184461	1.250142	108.187000
58.209840	1.250462	108.234000
58.234684	1.252280	108.279000
58.259582	1.254559	108.326000
58.285015	1.260006	108.371000
58.371530	1.284748	108.418000
58.397408	1.288998	108.578000
58.421857	1.294084	108.624000
58.445583	1.298862	108.670000
58.470996	1.303459	108.716000
58.495979	1.308543	108.761000
58.520931	1.316428	108.808000
58.545899	1.323590	108.854000
58.630125	1.332581	108.900000
58.654312	1.360820	109.055000
58.679595	1.368372	109.101000
58.703967	1.375720	109.147000
58.728511	1.382506	109.192000
58.754201	1.390375	109.239000
58.779564	1.399103	109.285000
58.804485	1.408813	109.331000
58.829530	1.419044	109.377000
58.854685	1.430375	109.423000
58.879007	1.441378	109.469000
58.968162	1.466723	109.516000
58.992085	1.466252	109.678000
59.016222	1.468604	109.724000
59.042315	1.466312	109.770000
59.067175	1.462599	109.816000
59.092296	1.453324	109.863000
59.117386	1.444015	109.909000
59.143003	1.431997	109.955000
59.226457	1.422192	110.002000
59.251490	1.380050	110.156000
59.275977	1.366892	110.203000
59.300552	1.351121	110.249000
59.325819	1.335015	110.295000
59.351782	1.318579	110.341000
59.376261	1.302891	110.387000
59.401225	1.289098	110.433000
59.426300	1.275498	110.479000
59.449934	1.261260	110.524000
59.475309	1.248736	110.570000
59.678532	1.146365	110.616000
59.703096	1.130304	110.991000
59.726819	1.117613	111.037000
59.811533	1.105851	111.083000
59.836715	1.062973	111.237000
59.862589	1.048999	111.284000
59.887468	1.034154	111.329000
59.911837	1.018843	111.376000
59.936631	1.004418	111.423000
59.961437	0.990809	111.469000
59.985847	0.979538	111.514000
60.011794	0.968702	111.560000
60.036777	0.958617	111.606000
60.061468	0.950364	111.652000
60.158187	0.944059	111.698000
60.183562	0.939273	111.878000
60.209036	0.938842	111.924000
60.233796	0.938982	111.971000
60.258675	0.940139	112.017000
60.284058	0.942691	112.063000
60.307880	0.945054	112.109000
60.333336	0.950684	112.155000
60.532456	0.955780	112.202000
60.556832	1.020546	112.569000
60.582533	1.026587	112.615000
60.607347	1.034280	112.661000
60.632326	1.040701	112.707000
60.657712	1.047949	112.754000
60.754650	1.079285	112.800000
60.779817	1.085667	112.978000
60.804328	1.094576	113.025000
60.828676	1.100957	113.071000
60.854389	1.107934	113.117000
60.878308	1.114809	113.162000
60.904166	1.120841	113.209000
60.929138	1.125602	113.255000
61.013214	1.131642	113.301000
61.039338	1.153177	113.457000
61.063475	1.159140	113.503000
61.087336	1.165252	113.549000
61.113091	1.172139	113.595000
61.137421	1.180801	113.641000
61.162880	1.188851	113.687000
61.188055	1.196128	113.733000
61.214036	1.206528	113.779000
61.238408	1.216164	113.826000
61.263283	1.227651	113.872000
61.350437	1.263025	113.917000
61.374171	1.266147	114.078000
61.399730	1.270735	114.124000
61.423956	1.274103	114.171000
61.449673	1.275413	114.217000
61.475358	1.271950	114.264000
61.500779	1.268346	114.310000
61.524928	1.260000	114.355000
61.609346	1.251290	114.402000
61.632946	1.219140	114.556000
61.657917	1.209097	114.602000
61.683784	1.199771	114.648000
61.708494	1.190699	114.694000
61.733296	1.183028	114.740000
61.759327	1.175287	114.787000
61.783934	1.170170	114.832000
61.807952	1.165612	114.879000
61.832912	1.162187	114.925000
61.858244	1.160684	114.971000
61.945179	1.168334	115.017000
61.970538	1.170588	115.178000
61.995063	1.177920	115.224000
62.020473	1.183607	115.271000
62.046262	1.188195	115.317000
62.071541	1.192204	115.363000
62.095882	1.197795	115.409000
62.120627	1.202130	115.454000
62.203834	1.207006	115.501000
62.229801	1.226858	115.655000
62.254983	1.232700	115.702000
62.279428	1.240540	115.748000
62.304184	1.246613	115.794000
62.330131	1.253489	115.840000
62.354123	1.263215	115.886000
62.377957	1.273284	115.932000
62.403612	1.285099	115.977000
62.428199	1.296533	116.023000
62.453374	1.310173	116.069000
62.656279	1.434964	116.115000
62.681484	1.443453	116.491000
62.706110	1.456451	116.538000
62.791288	1.467743	116.584000
62.815691	1.501642	116.738000
62.840881	1.512127	116.784000
62.865926	1.521767	116.831000
62.889306	1.528884	116.876000
62.914904	1.535256	116.923000
62.940513	1.543125	116.968000
62.965872	1.550542	117.015000
62.990225	1.563253	117.061000
63.015814	1.576342	117.108000
63.041446	1.593033	117.153000
63.137313	1.649181	117.200000
63.162615	1.653999	117.378000
63.187655	1.660180	117.424000
63.212192	1.662569	117.470000
63.236641	1.662110	117.517000
63.262019	1.658467	117.562000
63.287494	1.653659	117.609000
63.311977	1.645217	117.654000
63.510794	1.635857	117.701000
63.536234	1.587495	118.068000
63.561009	1.585846	118.114000
63.585773	1.587365	118.160000
63.610829	1.587956	118.206000
63.634463	1.588760	118.252000
63.733246	1.586171	118.298000
63.757871	1.581068	118.478000
63.781843	1.579873	118.524000
63.806957	1.578719	118.570000
63.832808	1.578110	118.616000
63.857783	1.577799	118.662000
63.882005	1.580034	118.708000
63.908014	1.582034	118.754000
63.990280	1.585266	118.800000
64.015920	1.614083	118.954000
64.041110	1.630386	119.000000
64.065640	1.648971	119.047000
64.091045	1.669207	119.093000
64.116327	1.692055	119.139000
64.141633	1.715684	119.185000
64.164975	1.739193	119.231000
64.190042	1.762101	119.277000
64.214668	1.781010	119.323000
64.239681	1.801380	119.369000
64.328925	1.862067	119.415000
64.353251	1.875341	119.578000
64.378237	1.891227	119.624000
64.403869	1.907874	119.669000
64.428671	1.925337	119.715000
64.453020	1.941513	119.761000
64.477596	1.958450	119.807000
64.501891	1.974433	119.853000
64.586094	1.989411	119.898000
64.611603	2.028318	120.054000
64.635944	2.035694	120.099000
64.661008	2.041476	120.146000
64.686179	2.045704	120.191000
64.709905	2.048214	120.238000
64.735844	2.049787	120.284000
64.760554	2.052116	120.329000
64.785495	2.052431	120.376000
64.810620	2.051306	120.422000
64.836575	2.051516	120.468000
64.924343	2.050723	120.514000
64.949222	2.045524	120.678000
64.975169	2.042640	120.725000
64.999925	2.039782	120.770000
65.024804	2.035684	120.817000
65.049368	2.030376	120.863000
65.073586	2.025899	120.908000
65.098865	2.020861	120.955000
65.183606	2.015953	121.001000
65.208170	1.994533	121.156000
65.233348	1.986742	121.202000
65.258350	1.978731	121.248000
65.282323	1.968974	121.294000
65.307025	1.962068	121.340000
65.332257	1.953835	121.385000
65.357159	1.946818	121.430000
65.381892	1.936653	121.476000
65.407171	1.925717	121.522000
65.431343	1.913625	121.568000
65.635062	1.781604	121.614000
65.660418	1.761940	121.991000
65.685781	1.747462	122.036000
65.768247	1.733409	122.083000
65.793749	1.695003	122.237000
65.818082	1.685027	122.283000
65.843461	1.677066	122.328000
65.868578	1.670080	122.375000
65.893534	1.664208	122.420000
65.918805	1.662893	122.466000
65.944053	1.665362	122.513000
65.968586	1.670719	122.559000
65.992381	1.675752	122.605000
66.018206	1.681434	122.652000
66.043046	1.685388	122.697000
66.128133	1.697373	122.744000
66.153496	1.690126	122.900000
66.177814	1.684797	122.946000
66.203185	1.677007	122.992000
66.227441	1.669545	123.039000
66.252205	1.660315	123.085000
66.276977	1.651848	123.130000
66.479505	1.642180	123.177000
66.504077	1.595616	123.549000
66.528587	1.592173	123.595000
66.554311	1.587956	123.641000
66.579205	1.584461	123.687000
66.604092	1.580608	123.733000
66.629133	1.577649	123.778000
66.712429	1.568168	123.825000
66.737684	1.563915	123.981000
66.762978	1.563290	124.026000
66.787419	1.563645	124.073000
66.812759	1.564125	124.119000
66.838315	1.564066	124.165000
66.863893	1.563925	124.211000
66.959997	1.561927	124.257000
66.985514	1.571651	124.437000
67.010347	1.574325	124.483000
67.034312	1.578509	124.529000
67.059506	1.582496	124.575000
67.084738	1.583117	124.621000
67.109049	1.581047	124.667000
67.134543	1.576684	124.714000
67.159867	1.572226	124.760000
67.185038	1.567849	124.806000
67.209963	1.565500	124.852000
67.308043	1.554791	124.898000
67.332952	1.548936	125.079000
67.357516	1.544748	125.125000
67.383172	1.540615	125.171000
67.408481	1.538924	125.218000
67.432545	1.535971	125.264000
67.457002	1.532152	125.310000
67.482649	1.529219	125.356000
67.567229	1.528463	125.402000
67.592930	1.525506	125.557000
67.617717	1.525195	125.603000
67.641866	1.523518	125.649000
67.667137	1.524389	125.695000
67.692023	1.527507	125.741000
67.716618	1.526742	125.788000
67.741712	1.528723	125.834000
67.767198	1.531891	125.880000
67.791616	1.535610	125.926000
67.817002	1.540906	125.972000
67.940583	1.538034	126.018000
67.965516	1.553385	126.246000
67.990572	1.566905	126.292000
68.016227	1.577670	126.339000
68.040430	1.586830	126.385000
68.064909	1.595808	126.431000
68.151740	1.603648	126.477000
68.176058	1.627287	126.637000
68.201890	1.635035	126.683000
68.226738	1.643156	126.729000
68.252201	1.651080	126.775000
68.276650	1.659081	126.821000
68.302197	1.670745	126.867000
68.326923	1.680992	126.913000
68.350503	1.693400	126.958000
68.376158	1.705344	127.004000
68.400215	1.716085	127.050000
68.425402	1.727509	127.096000
68.624641	1.792728	127.141000
68.649344	1.790590	127.510000
68.675037	1.792718	127.556000
68.795291	1.792818	127.602000
68.819463	1.787773	127.824000
68.844949	1.784839	127.870000
68.870051	1.781431	127.917000
68.895091	1.777257	127.963000
68.920377	1.773188	128.009000
68.945502	1.769989	128.055000
68.970205	1.766731	128.101000
68.994953	1.763092	128.147000
69.019963	1.760380	128.193000
69.103267	1.768283	128.239000
69.128868	1.770625	128.394000
69.153932	1.778153	128.440000
69.178557	1.784929	128.485000
69.204158	1.791736	128.532000
69.229153	1.795444	128.578000
69.253578	1.799324	128.624000
69.458350	1.800930	128.670000
69.483367	1.859980	129.049000
69.508339	1.866813	129.096000
69.533494	1.870806	129.142000
69.558819	1.875451	129.188000
69.583460	1.880826	129.234000
69.607709	1.884485	129.279000
69.692211	1.900311	129.326000
69.717259	1.902644	129.482000
69.742776	1.910541	129.528000
69.768216	1.919661	129.574000
69.792657	1.932228	129.620000
69.817682	1.942008	129.666000
69.842669	1.953429	129.712000
69.939434	1.963925	129.759000
69.964260	2.004772	129.938000
69.989315	2.010919	129.984000
70.014133	2.013133	130.030000
70.038943	2.016466	130.077000
70.064552	2.018427	130.123000
70.090068	2.023385	130.168000
70.114248	2.028826	130.214000
70.139773	2.032928	130.261000
70.164813	2.037127	130.306000
70.189369	2.041885	130.353000
70.286919	2.060246	130.399000
70.312858	2.057987	130.578000
70.336892	2.059782	130.625000
70.360880	2.058287	130.672000
70.386335	2.056457	130.718000
70.411052	2.052315	130.764000
70.436308	2.046873	130.810000
70.461617	2.040721	130.856000
70.546135	2.032730	130.902000
70.570745	2.009131	131.057000
70.595394	2.002738	131.103000
70.620127	1.995912	131.150000
70.645529	1.990518	131.196000
70.671099	1.985690	131.242000
70.695701	1.986406	131.288000
70.721118	1.989214	131.334000
70.746043	1.993683	131.380000
70.771660	1.998161	131.427000
70.795525	2.001218	131.473000
70.882870	2.003239	131.519000
70.906597	1.995562	131.679000
70.931092	1.989870	131.725000
70.956947	1.983727	131.771000
70.981780	1.977660	131.817000
71.006851	1.971628	131.863000
71.031653	1.965292	131.909000
71.057807	1.958545	131.954000
71.140351	1.953230	132.001000
71.165499	1.932048	132.156000
71.190539	1.926358	132.202000
71.215203	1.921763	132.248000
71.241112	1.918295	132.293000
71.265852	1.916678	132.340000
71.290416	1.914325	132.386000
71.314888	1.913600	132.431000
71.339368	1.912003	132.477000
71.364416	1.912154	132.523000
71.389479	1.911758	132.569000
71.593413	1.891382	132.615000
71.617217	1.883644	132.990000
71.641873	1.878204	133.036000
71.726214	1.872194	133.082000
71.751201	1.849990	133.237000
71.776564	1.844469	133.282000
71.800429	1.838188	133.328000
71.824816	1.831651	133.373000
71.849734	1.823994	133.419000
71.875012	1.817562	133.464000
71.899653	1.813959	133.511000
71.924240	1.810745	133.557000
71.949972	1.808243	133.603000
71.973476	1.803999	133.648000
71.998992	1.802792	133.694000
72.083349	1.808502	133.741000
72.108197	1.810865	133.896000
72.134075	1.817893	133.943000
72.158793	1.826356	133.989000
72.183326	1.835234	134.034000
72.208866	1.847076	134.081000
72.232761	1.858848	134.127000
72.436780	1.871257	134.173000
72.462205	1.961142	134.549000
72.487268	1.973486	134.595000
72.510641	1.986216	134.640000
72.535835	2.000309	134.686000
72.560591	2.014068	134.732000
72.584902	2.028356	134.777000
72.670065	2.075928	134.822000
72.694522	2.087282	134.978000
72.718809	2.102106	135.025000
72.743811	2.116519	135.071000
72.769382	2.131207	135.117000
72.794146	2.147649	135.164000
72.819877	2.163680	135.209000
72.844972	2.177914	135.256000
72.927623	2.193913	135.302000
72.952770	2.243768	135.456000
72.977227	2.256906	135.502000
73.002575	2.269318	135.548000
73.027638	2.282467	135.593000
73.053193	2.293934	135.640000
73.077650	2.302568	135.686000
73.103443	2.311918	135.733000
73.128845	2.319920	135.779000
73.152102	2.329635	135.825000
73.177135	2.341447	135.871000
73.265034	2.388634	135.917000
73.289559	2.400898	136.079000
73.315092	2.416486	136.125000
73.339494	2.433273	136.171000
73.364919	2.450336	136.216000
73.390236	2.468153	136.263000
73.415983	2.486128	136.309000
73.440170	2.506542	136.356000
73.523659	2.529438	136.402000
73.547862	2.624272	136.555000
73.573394	2.657205	136.602000
73.598857	2.690588	136.648000
73.623482	2.724464	136.694000
73.648554	2.756681	136.740000
73.673210	2.786761	136.786000
73.698027	2.818117	136.832000
73.722776	2.848286	136.878000
73.748000	2.877717	136.924000
73.773302	2.905553	136.970000
73.860479	3.007683	137.016000
73.886303	3.033371	137.179000
73.911166	3.059876	137.225000
73.936068	3.086648	137.272000
73.961370	3.115027	137.317000
73.986203	3.143175	137.364000
74.010337	3.173366	137.410000
74.035293	3.204692	137.455000
74.119204	3.238561	137.502000
74.144167	3.359097	137.655000
74.169768	3.399507	137.701000
74.193864	3.442951	137.748000
74.218574	3.488494	137.793000
74.243522	3.538204	137.839000
74.268209	3.590998	137.886000
74.293034	3.645728	137.931000
74.318543	3.702107	137.976000
74.343007	3.760195	138.022000
74.367272	3.817483	138.067000
74.571398	4.230814	138.113000
74.597191	4.271554	138.491000
74.621394	4.316788	138.537000
74.706512	4.362570	138.583000
74.730123	4.522141	138.738000
74.755594	4.570993	138.785000
74.780511	4.616936	138.831000
74.805183	4.660355	138.877000
74.830745	4.702131	138.922000
74.855878	4.741400	138.969000
74.881218	4.775898	139.015000
74.905229	4.805994	139.060000
74.930592	4.831749	139.107000
74.955294	4.853977	139.152000
75.053535	4.938427	139.199000
75.078890	4.960057	139.379000
75.104092	4.986649	139.425000
75.127772	5.012348	139.472000
75.152782	5.041514	139.518000
75.178768	5.073308	139.564000
75.203600	5.106917	139.610000
75.228449	5.140766	139.656000
75.427865	5.173670	139.701000
75.453005	5.398060	140.069000
75.477792	5.418879	140.116000
75.502425	5.441113	140.162000
75.527389	5.459499	140.208000
75.551369	5.480854	140.254000
75.649064	5.564394	140.301000
75.673851	5.585673	140.479000
75.698699	5.610304	140.525000
75.723924	5.635800	140.572000
75.749157	5.660811	140.617000
75.774881	5.685600	140.664000
75.799506	5.714850	140.710000
75.824516	5.744665	140.756000
75.907236	5.776813	140.801000
75.933122	5.893067	140.957000
75.958392	5.928675	141.003000
75.983210	5.965616	141.050000
76.008043	6.001290	141.096000
76.033483	6.038047	141.142000
76.058746	6.074878	141.188000
76.082357	6.110979	141.234000
76.108066	6.150089	141.280000
76.131962	6.186936	141.326000
76.157202	6.224805	141.372000
76.244955	6.352453	141.418000
76.269611	6.385797	141.579000
76.294936	6.424857	141.625000
76.320460	6.464637	141.671000
76.345631	6.505227	141.717000
76.369027	6.545568	141.763000
76.394436	6.584713	141.809000
76.418462	6.623938	141.855000
76.503011	6.665073	141.901000
76.528728	6.815501	142.056000
76.553330	6.864523	142.102000
76.578755	6.916788	142.148000
76.603534	6.966218	142.194000
76.627368	7.017169	142.240000
76.652654	7.070268	142.286000
76.677234	7.121701	142.331000
76.702466	7.174862	142.378000
76.727130	7.230123	142.424000
76.752885	7.286477	142.469000
76.840269	7.505812	142.515000
76.865640	7.569978	142.679000
76.891264	7.640793	142.724000
76.915098	7.713444	142.771000
76.940092	7.786801	142.817000
76.965079	7.859810	142.862000
76.989812	7.931237	142.909000
77.014906	7.998889	142.955000
77.099916	8.064571	143.001000
77.123742	8.277873	143.155000
77.148591	8.337363	143.202000
77.173669	8.398584	143.248000
77.197941	8.460927	143.294000
77.223512	8.527895	143.340000
77.248675	8.595892	143.386000
77.273362	8.663065	143.431000
77.298118	8.728397	143.476000
77.322982	8.792020	143.522000
77.347047	8.852965	143.568000
77.551119	9.303746	143.614000
