Sample	2mm tape 
date	08/01/2025
	
Temperature (K)	77.00
Angle (deg.)	0.000000
field / T	0.450000
	
		
Approx. trace time (s)	120.0	
		
Current / A	V1  -sample/ uV	time/s
-0.019039	2.259529	0.000000
-0.018228	2.251946	0.081000
-0.019149	2.236767	0.127000
-0.018338	2.231853	0.287000
-0.018897	2.235245	0.332000
-0.018437	2.223224	0.379000
-0.018197	2.222451	0.426000
-0.018940	2.217740	0.472000
-0.018437	2.212938	0.519000
-0.019192	2.214227	0.565000
-0.018283	2.212999	0.610000
-0.018829	2.211760	0.656000
-0.018295	2.217214	0.703000
-0.016872	2.221001	0.750000
0.013548	2.217842	0.796000
0.039712	2.222890	0.842000
0.064316	2.221885	0.888000
0.089976	2.225762	0.935000
0.114866	2.222941	0.980000
0.198601	2.220596	1.027000
0.222895	2.218938	1.181000
0.310095	2.217103	1.227000
0.334527	2.214930	1.387000
0.359984	2.215102	1.434000
0.384630	2.219388	1.479000
0.410599	2.226768	1.526000
0.434833	2.220465	1.571000
0.459749	2.217750	1.618000
0.485085	2.209516	1.664000
0.510154	2.217862	1.710000
0.534688	2.220374	1.757000
0.559873	2.216851	1.803000
0.584727	2.217791	1.848000
0.610234	2.217967	1.896000
0.635382	2.227253	1.941000
0.660068	2.223245	1.988000
0.685940	2.230777	2.033000
0.710696	2.228128	2.080000
0.909560	2.237216	2.126000
0.934304	2.257734	2.494000
0.958612	2.263460	2.540000
0.983930	2.265917	2.587000
1.008980	2.265043	2.633000
1.034669	2.268557	2.679000
1.059172	2.270436	2.725000
1.084412	2.271503	2.771000
1.109619	2.277948	2.817000
1.133977	2.285990	2.863000
1.158568	2.284049	2.909000
1.183607	2.282821	2.955000
1.209185	2.280171	3.002000
1.234197	2.270416	3.048000
1.259253	2.274394	3.093000
1.284408	2.273419	3.140000
1.309569	2.274991	3.185000
1.392849	2.285005	3.232000
1.417372	2.290761	3.386000
1.616921	2.289614	3.434000
1.642462	2.285480	3.802000
1.667573	2.286051	3.848000
1.693019	2.288548	3.895000
1.718247	2.289988	3.941000
1.742952	2.294639	3.987000
1.768463	2.294527	4.033000
1.793501	2.298880	4.079000
1.817852	2.308389	4.125000
1.842338	2.314878	4.172000
1.867893	2.310026	4.218000
1.892815	2.314399	4.264000
1.986403	2.313336	4.311000
2.011199	2.307660	4.481000
2.097771	2.319009	4.528000
2.122026	2.319762	4.687000
2.146923	2.322850	4.733000
2.171748	2.326636	4.779000
2.196590	2.327450	4.825000
2.222346	2.324412	4.872000
2.247867	2.344302	4.919000
2.272985	2.342524	4.965000
2.298495	2.342362	5.011000
2.323483	2.347467	5.058000
2.348375	2.347755	5.105000
2.372908	2.346850	5.151000
2.397339	2.344828	5.196000
2.422659	2.349539	5.243000
2.447832	2.348382	5.289000
2.473066	2.353897	5.335000
2.498424	2.351925	5.380000
2.581604	2.350566	5.427000
2.605711	2.358087	5.581000
2.692134	2.367560	5.628000
2.717043	2.367327	5.787000
2.743125	2.368343	5.834000
2.767958	2.363834	5.879000
2.793009	2.370830	5.926000
2.817949	2.371442	5.971000
2.842896	2.363156	6.017000
2.868185	2.363511	6.064000
2.892791	2.359543	6.110000
2.917308	2.354635	6.156000
2.942158	2.352982	6.202000
2.967095	2.355135	6.248000
2.992747	2.360832	6.294000
3.017654	2.357835	6.340000
3.043035	2.358486	6.386000
3.067963	2.359735	6.432000
3.092368	2.360984	6.478000
3.176924	2.360372	6.525000
3.202345	2.355853	6.681000
3.288153	2.354311	6.728000
3.313547	2.349610	6.887000
3.338734	2.351602	6.934000
3.364030	2.353664	6.979000
3.389303	2.359512	7.025000
3.414084	2.353705	7.072000
3.439196	2.349306	7.119000
3.463694	2.352992	7.165000
3.488486	2.350707	7.211000
3.513746	2.351905	7.257000
3.539009	2.347548	7.304000
3.564728	2.347285	7.349000
3.589592	2.348953	7.396000
3.614978	2.340208	7.442000
3.639351	2.344363	7.489000
3.664781	2.341907	7.535000
3.689170	2.341275	7.581000
3.887845	2.345652	7.628000
3.913627	2.339399	7.995000
3.938278	2.339946	8.041000
3.963605	2.342352	8.088000
3.988729	2.336483	8.134000
4.014020	2.335866	8.180000
4.039638	2.335457	8.227000
4.064363	2.333966	8.273000
4.089266	2.339824	8.319000
4.113613	2.340547	8.365000
4.138602	2.347417	8.411000
4.163448	2.288018	8.456000
4.188461	2.347704	8.503000
4.213953	2.346007	8.549000
4.239456	2.346138	8.596000
4.264746	2.347235	8.643000
4.289572	2.342423	8.688000
4.372651	2.347083	8.735000
4.397837	2.348726	8.889000
4.596650	2.346279	8.936000
4.622326	2.342605	9.303000
4.647505	2.346496	9.350000
4.672766	2.353184	9.396000
4.697497	2.358587	9.442000
4.723099	2.360362	9.489000
4.747150	2.361499	9.534000
4.771457	2.366372	9.580000
4.796905	2.366513	9.627000
4.821875	2.366640	9.673000
4.847595	2.364487	9.719000
4.872477	2.364178	9.765000
4.964622	2.364168	9.812000
4.988936	2.373742	9.981000
5.074898	2.382991	10.028000
5.100230	2.386262	10.187000
5.125410	2.389664	10.233000
5.150859	2.380161	10.279000
5.175721	2.379529	10.325000
5.201085	2.381369	10.371000
5.225853	2.381844	10.418000
5.250672	2.393788	10.464000
5.275587	2.391858	10.510000
5.300317	2.392353	10.557000
5.325637	2.397003	10.603000
5.350675	2.395583	10.648000
5.375990	2.401613	10.695000
5.401054	2.400294	10.741000
5.425917	2.397074	10.786000
5.450692	2.402690	10.833000
5.475178	2.413935	10.879000
5.559745	2.416076	10.925000
5.584808	2.408116	11.082000
5.671595	2.407251	11.128000
5.696427	2.406849	11.286000
5.721360	2.413212	11.332000
5.746467	2.420618	11.378000
5.771044	2.426822	11.425000
5.795966	2.428810	11.471000
5.820665	2.431091	11.517000
5.846206	2.435054	11.563000
5.871057	2.433483	11.610000
5.896260	2.436501	11.655000
5.921428	2.437254	11.702000
5.946272	2.435285	11.747000
5.971439	2.436088	11.794000
5.996562	2.434629	11.841000
6.020857	2.427532	11.887000
6.045551	2.428099	11.933000
6.071035	2.423041	11.979000
6.155813	2.421501	12.025000
6.181059	2.421835	12.181000
6.267472	2.404657	12.228000
6.292485	2.401553	12.387000
6.318061	2.393410	12.433000
6.342823	2.392762	12.479000
6.355568	2.398212	12.526000
6.392269	2.395401	12.572000
6.417216	2.398975	12.619000
6.442518	2.399693	12.665000
6.467722	2.406879	12.711000
6.493054	2.395432	12.757000
6.518474	2.393798	12.804000
6.543253	2.390861	12.850000
6.567943	2.386029	12.896000
6.592530	2.382668	12.942000
6.617293	2.379226	12.988000
6.642500	2.375349	13.034000
6.667845	2.375592	13.080000
6.867004	2.380111	13.126000
6.891946	2.384478	13.494000
6.917369	2.386202	13.540000
6.942725	2.378332	13.587000
6.968207	2.378761	13.634000
6.992713	2.373706	13.680000
7.017115	2.371452	13.726000
7.041937	2.368323	13.772000
7.066982	2.369278	13.818000
7.092441	2.364557	13.865000
7.117092	2.365513	13.911000
7.142973	2.372851	13.957000
7.168028	2.367918	14.003000
7.193043	2.366680	14.049000
7.217910	2.362283	14.096000
7.242250	2.360129	14.142000
7.267633	2.356232	14.189000
7.351740	2.353133	14.234000
7.376932	2.338202	14.389000
7.576468	2.292232	14.435000
7.601872	2.288881	14.803000
7.627186	2.288658	14.850000
7.652016	2.288118	14.896000
7.676360	2.282263	14.942000
7.701431	2.276598	14.989000
7.726905	2.281622	15.036000
7.752010	2.282618	15.081000
7.777401	2.277714	15.129000
7.802414	2.286232	15.175000
7.827857	2.281481	15.221000
7.853568	2.286252	15.267000
7.942991	2.287905	15.314000
7.968123	2.298707	15.481000
8.054602	2.310187	15.527000
8.080560	2.316379	15.687000
8.105388	2.321621	15.733000
8.130518	2.326145	15.779000
8.155491	2.333965	15.826000
8.180298	2.326443	15.872000
8.204877	2.336644	15.918000
8.229561	2.339267	15.964000
8.254881	2.349488	16.011000
8.280299	2.354543	16.057000
8.305469	2.360452	16.103000
8.330249	2.364738	16.148000
8.355046	2.367897	16.194000
8.380053	2.380009	16.241000
8.404306	2.386160	16.287000
8.429223	2.386994	16.332000
8.454011	2.387035	16.379000
8.539325	2.392262	16.425000
8.564463	2.406261	16.581000
8.650590	2.422108	16.627000
8.675725	2.429103	16.786000
8.699911	2.444875	16.832000
8.724450	2.441655	16.878000
8.749715	2.450524	16.924000
8.774760	2.455888	16.971000
8.799792	2.459230	17.017000
8.825161	2.465049	17.063000
8.850322	2.470253	17.109000
8.875874	2.468457	17.156000
8.901052	2.481424	17.201000
8.925374	2.482114	17.248000
8.949659	2.489696	17.294000
8.974618	2.495606	17.340000
8.999743	2.493538	17.387000
9.025087	2.500976	17.433000
9.050520	2.501102	17.478000
9.135786	2.499861	17.525000
9.160634	2.510103	17.681000
9.246520	2.509506	17.728000
9.270983	2.508856	17.887000
9.296376	2.508249	17.933000
9.321539	2.510970	17.979000
9.346479	2.513292	18.026000
9.372269	2.520196	18.072000
9.397104	2.518868	18.119000
9.422529	2.518732	18.164000
9.447493	2.516769	18.211000
9.471527	2.516109	18.257000
9.496942	2.514963	18.303000
9.521434	2.512378	18.350000
9.546797	2.513423	18.396000
9.571775	2.516420	18.442000
9.597150	2.521311	18.488000
9.622879	2.519141	18.535000
9.647869	2.522912	18.581000
9.846791	2.524869	18.627000
9.871977	2.551449	18.995000
9.897044	2.561679	19.041000
9.921352	2.567403	19.087000
9.946321	2.574560	19.134000
9.971189	2.576388	19.180000
9.996578	2.581903	19.227000
10.021991	2.588289	19.273000
10.047347	2.596147	19.320000
10.072899	2.604945	19.365000
10.097168	2.604996	19.411000
10.122170	2.607479	19.457000
10.146041	2.615772	19.503000
10.171440	2.622262	19.549000
10.196903	2.628327	19.596000
10.221739	2.639933	19.642000
10.247444	2.641738	19.689000
10.331074	2.649537	19.735000
10.356166	2.662715	19.889000
10.555569	2.669200	19.936000
10.579948	2.665995	20.304000
10.605139	2.675498	20.350000
10.630103	2.669750	20.396000
10.655925	2.667860	20.443000
10.681190	2.668704	20.489000
10.706208	2.666267	20.536000
10.731326	2.664388	20.581000
10.756855	2.668214	20.629000
10.781827	2.659777	20.675000
10.805714	2.651604	20.721000
10.830521	2.648399	20.767000
10.922314	2.648399	20.813000
10.947504	2.657210	20.981000
11.034154	2.660328	21.027000
11.058917	2.659434	21.187000
11.083816	2.655820	21.233000
11.108575	2.652175	21.279000
11.133159	2.643046	21.326000
11.157979	2.640074	21.371000
11.183374	2.637015	21.418000
11.208256	2.645472	21.464000
11.233712	2.645664	21.510000
11.259106	2.644987	21.556000
11.284159	2.636510	21.603000
11.308982	2.638609	21.649000
11.333108	2.634276	21.695000
11.358344	2.626485	21.740000
11.383223	2.620152	21.786000
11.408651	2.619757	21.833000
11.433659	2.619747	21.879000
11.518486	2.620263	21.924000
11.543833	2.611980	22.081000
11.629590	2.607569	22.128000
11.654454	2.600150	22.287000
11.678695	2.600432	22.333000
11.704311	2.596582	22.379000
11.729409	2.594139	22.426000
11.754269	2.589827	22.472000
11.779498	2.585684	22.518000
11.804322	2.579936	22.564000
11.830120	2.575171	22.610000
11.854236	2.580470	22.656000
11.878833	2.575983	22.703000
11.904005	2.580747	22.748000
11.929004	2.578426	22.795000
11.954496	2.581535	22.841000
11.979290	2.581041	22.887000
12.005082	2.587652	22.933000
12.030025	2.587344	22.979000
12.113640	2.586138	23.026000
12.138247	2.573783	23.181000
12.224527	2.567417	23.227000
12.250190	2.564192	23.387000
12.275010	2.564597	23.434000
12.300790	2.563502	23.479000
12.325711	2.565531	23.526000
12.351289	2.566444	23.573000
12.375939	2.565723	23.618000
12.400638	2.565510	23.665000
12.425356	2.562774	23.712000
12.450211	2.559873	23.757000
12.475487	2.555829	23.804000
12.500056	2.544009	23.849000
12.525490	2.555552	23.896000
12.551119	2.551923	23.942000
12.575968	2.553467	23.988000
12.601436	2.557248	24.035000
12.626082	2.563350	24.080000
12.825231	2.560654	24.127000
12.849564	2.540733	24.495000
12.874614	2.535463	24.540000
12.900019	2.532964	24.587000
12.925423	2.532046	24.634000
12.950729	2.533890	24.679000
12.975553	2.524188	24.726000
13.001216	2.520792	24.772000
13.026010	2.523364	24.819000
13.050652	2.521220	24.865000
13.075715	2.521685	24.912000
13.100122	2.523384	24.958000
13.125505	2.516870	25.004000
13.150819	2.514477	25.050000
13.175808	2.513956	25.096000
13.201027	2.512588	25.143000
13.226514	2.509688	25.189000
13.309817	2.505679	25.235000
13.334465	2.499457	25.391000
13.533791	2.470877	25.436000
13.559493	2.471600	25.805000
13.584639	2.464766	25.851000
13.609763	2.472134	25.897000
13.634831	2.472296	25.943000
13.660040	2.473370	25.990000
13.685300	2.465659	26.036000
13.710311	2.467219	26.082000
13.734699	2.464453	26.128000
13.759235	2.462867	26.175000
13.784620	2.459456	26.221000
13.809540	2.459289	26.267000
13.901219	2.462574	26.313000
13.925815	2.452399	26.482000
14.012319	2.442910	26.527000
14.036931	2.440366	26.687000
14.062373	2.441967	26.733000
14.087013	2.447523	26.780000
14.112548	2.444954	26.826000
14.137607	2.446802	26.872000
14.162525	2.450946	26.918000
14.188066	2.451304	26.964000
14.213170	2.452834	27.010000
14.236988	2.451486	27.057000
14.261921	2.450280	27.103000
14.287044	2.454842	27.148000
14.312174	2.461878	27.195000
14.337576	2.462695	27.241000
14.363245	2.467717	27.288000
14.387930	2.469450	27.334000
14.413651	2.476354	27.380000
14.496004	2.483177	27.426000
14.521385	2.499264	27.581000
14.607736	2.508611	27.627000
14.632835	2.511841	27.787000
14.658355	2.513573	27.834000
14.683357	2.519352	27.879000
14.708811	2.525736	27.926000
14.733756	2.533727	27.972000
14.758917	2.541005	28.018000
14.783035	2.541256	28.064000
14.808194	2.542110	28.111000
14.833235	2.542534	28.158000
14.858248	2.549075	28.204000
14.883556	2.543649	28.250000
14.908575	2.537617	28.295000
14.934016	2.544553	28.341000
14.959217	2.546744	28.388000
14.983757	2.553658	28.434000
15.008747	2.557115	28.480000
15.092847	2.567239	28.527000
15.118345	2.576739	28.680000
15.204171	2.591826	28.728000
15.230016	2.590832	28.887000
15.254956	2.593395	28.933000
15.280212	2.592880	28.979000
15.305330	2.596135	29.026000
15.329730	2.594757	29.073000
15.355445	2.601647	29.119000
15.379813	2.608289	29.165000
15.405528	2.613196	29.212000
15.431019	2.624653	29.259000
15.455787	2.635848	29.305000
15.481437	2.650385	29.351000
15.506365	2.664447	29.397000
15.531588	2.680865	29.444000
15.556418	2.688458	29.490000
15.581022	2.698208	29.537000
15.605700	2.709627	29.582000
15.804825	2.717457	29.629000
15.830415	2.787708	29.996000
15.855076	2.795861	30.042000
15.880255	2.802807	30.088000
15.905109	2.808246	30.133000
15.930369	2.810551	30.179000
15.955161	2.819139	30.226000
15.979693	2.816874	30.272000
16.004455	2.824584	30.318000
16.029475	2.829628	30.364000
16.054825	2.841217	30.411000
16.080034	2.852257	30.457000
16.104841	2.857425	30.503000
16.129493	2.860439	30.548000
16.154103	2.870110	30.594000
16.178725	2.870972	30.640000
16.202935	2.882475	30.686000
16.287306	2.883096	30.731000
16.312628	2.894654	30.886000
16.511951	2.926608	30.932000
16.536824	2.927986	31.301000
16.561893	2.930328	31.347000
16.586501	2.934633	31.392000
16.610802	2.938011	31.439000
16.636000	2.943153	31.485000
16.661342	2.943481	31.530000
16.686720	2.948124	31.576000
16.711880	2.943551	31.623000
16.736676	2.945132	31.669000
16.761173	2.944616	31.714000
16.786023	2.947574	31.761000
16.880075	2.952036	31.807000
16.905009	2.952510	31.981000
16.991558	2.955493	32.028000
17.016444	2.950799	32.188000
17.041875	2.946735	32.233000
17.067355	2.945231	32.280000
17.092368	2.936582	32.326000
17.117841	2.935738	32.372000
17.142518	2.934362	32.419000
17.166844	2.929607	32.464000
17.191500	2.924347	32.511000
17.216789	2.924110	32.557000
17.241668	2.919997	32.603000
17.266543	2.918169	32.648000
17.291752	2.924680	32.694000
17.316697	2.926628	32.740000
17.340823	2.926089	32.786000
17.365462	2.919744	32.832000
17.390404	2.921893	32.878000
17.475952	2.918406	32.924000
17.501245	2.910810	33.081000
17.587898	2.906247	33.127000
17.613040	2.909583	33.287000
17.638620	2.911022	33.333000
17.662769	2.917039	33.379000
17.686820	2.922640	33.425000
17.712005	2.930136	33.472000
17.737037	2.938032	33.518000
17.762491	2.943885	33.564000
17.787614	2.953595	33.610000
17.812769	2.955787	33.657000
17.838092	2.963387	33.703000
17.863324	2.967848	33.749000
17.888140	2.968682	33.795000
17.912648	2.969929	33.841000
17.937529	2.972260	33.887000
17.962616	2.976894	33.933000
17.987912	2.981547	33.980000
18.072439	2.985947	34.027000
18.097608	3.021855	34.181000
18.183834	3.052122	34.228000
18.208788	3.062078	34.387000
18.233365	3.069266	34.434000
18.258097	3.074685	34.479000
18.283097	3.080493	34.525000
18.308295	3.077247	34.572000
18.333581	3.082858	34.617000
18.358398	3.088353	34.664000
18.383396	3.088495	34.710000
18.409009	3.091866	34.756000
18.433844	3.100323	34.803000
18.458425	3.108456	34.848000
18.482651	3.110311	34.895000
18.507653	3.116993	34.940000
18.532938	3.124091	34.987000
18.558493	3.132123	35.033000
18.583800	3.135458	35.079000
18.782919	3.144477	35.126000
18.808169	3.141216	35.494000
18.832760	3.145997	35.540000
18.857952	3.145168	35.586000
18.870464	3.144325	35.631000
18.907149	3.141990	35.678000
18.932548	3.142030	35.725000
18.957823	3.145886	35.771000
18.982923	3.149490	35.817000
19.008175	3.156436	35.863000
19.033100	3.158326	35.909000
19.058354	3.157350	35.956000
19.083025	3.153423	36.002000
19.108073	3.152832	36.048000
19.132614	3.149056	36.095000
19.158317	3.150062	36.141000
19.182902	3.149056	36.187000
19.267192	3.147585	36.233000
19.292539	3.143592	36.387000
19.491547	3.152672	36.435000
19.516057	3.152712	36.802000
19.540836	3.143765	36.848000
19.565754	3.145181	36.894000
19.590963	3.138154	36.940000
19.616073	3.133014	36.986000
19.641416	3.135940	37.033000
19.666530	3.132235	37.079000
19.691501	3.133004	37.125000
19.716357	3.136835	37.171000
19.741121	3.135738	37.217000
19.766123	3.138792	37.264000
19.859202	3.137421	37.311000
19.884033	3.137553	37.480000
19.970510	3.130515	37.527000
19.996202	3.128700	37.687000
20.020852	3.125683	37.734000
20.045831	3.124768	37.779000
20.070196	3.127542	37.825000
20.095290	3.122403	37.872000
20.120138	3.121361	37.918000
20.145096	3.119642	37.964000
20.170841	3.126992	38.010000
20.196058	3.127269	38.057000
20.221120	3.123706	38.103000
20.246143	3.132587	38.149000
20.270916	3.130566	38.195000
20.295632	3.129266	38.241000
20.319960	3.122912	38.288000
20.345953	3.125460	38.334000
20.370486	3.117858	38.379000
20.455350	3.112595	38.427000
20.480469	3.103825	38.581000
20.566760	3.106102	38.628000
20.591868	3.108244	38.787000
20.616113	3.108088	38.833000
20.640364	3.099025	38.879000
20.665515	3.092110	38.925000
20.691299	3.090801	38.972000
20.716196	3.083289	39.017000
20.741939	3.078028	39.064000
20.767388	3.057711	39.111000
20.791862	3.062484	39.157000
20.816782	3.055409	39.203000
20.841396	3.051377	39.249000
20.866392	3.042650	39.296000
20.891382	3.038218	39.341000
20.916599	3.030950	39.387000
20.942043	3.027837	39.434000
20.967028	3.025819	39.479000
21.051150	3.014148	39.526000
21.075113	3.015012	39.680000
21.161542	3.008288	39.728000
21.186275	3.011009	39.887000
21.211997	2.999804	39.933000
21.236836	2.994231	39.979000
21.261673	2.992274	40.025000
21.287113	2.988372	40.071000
21.311909	2.986949	40.117000
21.336911	2.980575	40.163000
21.361237	2.979257	40.209000
21.386564	2.971398	40.256000
21.411412	2.962348	40.302000
21.436836	2.956387	40.348000
21.462063	2.960036	40.394000
21.487205	2.947404	40.440000
21.512374	2.945864	40.487000
21.537169	2.944982	40.533000
21.561737	2.940893	40.579000
21.761791	2.942245	40.624000
21.786470	2.915274	40.994000
21.811113	2.919093	41.040000
21.835746	2.922350	41.087000
21.860990	2.933726	41.132000
21.886238	2.942457	41.178000
21.911357	2.951103	41.224000
21.936810	2.957392	41.271000
21.961386	2.962895	41.316000
21.986442	2.965014	41.362000
22.010942	2.963716	41.409000
22.036204	2.968552	41.456000
22.061273	2.968714	41.502000
22.086544	2.964111	41.547000
22.111759	2.970419	41.594000
22.136598	2.974149	41.640000
22.161838	2.968895	41.686000
22.244304	2.973872	41.732000
22.270115	2.967143	41.887000
22.469140	2.971559	41.933000
22.494547	2.968319	42.301000
22.520227	2.962206	42.348000
22.545223	2.964130	42.394000
22.570648	2.959976	42.440000
22.596026	2.952687	42.487000
22.620709	2.950466	42.533000
22.645375	2.948841	42.579000
22.670241	2.940831	42.625000
22.694985	2.940039	42.670000
22.719714	2.938641	42.717000
22.745383	2.935739	42.763000
22.838520	2.944026	42.809000
22.863904	2.945601	42.981000
22.950003	2.953234	43.028000
22.975310	2.945394	43.187000
22.999903	2.946550	43.234000
23.024724	2.946601	43.280000
23.049709	2.944364	43.327000
23.074949	2.947091	43.372000
23.100754	2.952960	43.419000
23.125612	2.949655	43.465000
23.150846	2.952667	43.512000
23.175889	2.946969	43.558000
23.200931	2.943360	43.604000
23.225382	2.942498	43.650000
23.250115	2.937759	43.696000
23.275030	2.933624	43.743000
23.300361	2.928552	43.788000
23.325926	2.929648	43.835000
23.350653	2.919351	43.881000
23.434873	2.916903	43.928000
23.459783	2.919553	44.082000
23.544950	2.940851	44.129000
23.570494	2.937374	44.287000
23.595165	2.930954	44.333000
23.620901	2.925331	44.380000
23.645644	2.924448	44.426000
23.671191	2.928733	44.473000
23.696524	2.932020	44.518000
23.720609	2.927205	44.564000
23.745517	2.925978	44.610000
23.769720	2.923636	44.656000
23.795062	2.916236	44.702000
23.820454	2.913212	44.748000
23.845569	2.904991	44.795000
23.870498	2.897884	44.841000
23.895523	2.901381	44.887000
23.921080	2.893326	44.933000
23.945333	2.900817	44.978000
24.029127	2.895360	45.025000
24.054465	2.895188	45.181000
24.141144	2.900260	45.227000
24.166284	2.897651	45.387000
24.191695	2.896022	45.434000
24.217078	2.895038	45.480000
24.241494	2.894937	45.526000
24.266208	2.900483	45.571000
24.290276	2.899963	45.617000
24.315049	2.899872	45.662000
24.340297	2.903310	45.709000
24.365683	2.902618	45.756000
24.391410	2.903027	45.802000
24.416344	2.906211	45.847000
24.441050	2.902125	45.895000
24.465870	2.899853	45.940000
24.490609	2.902305	45.986000
24.515269	2.901912	46.033000
24.540330	2.898374	46.079000
24.740094	2.901891	46.125000
24.765377	2.885003	46.494000
24.790846	2.891419	46.540000
24.815842	2.886098	46.587000
24.841101	2.890833	46.632000
24.866230	2.882242	46.679000
24.890838	2.885569	46.724000
24.916407	2.879890	46.771000
24.940515	2.878754	46.817000
24.965272	2.880774	46.863000
24.990458	2.881516	46.909000
25.015168	2.889187	46.955000
25.040481	2.884272	47.002000
25.066082	2.894482	47.047000
25.091299	2.898009	47.094000
25.116196	2.890751	47.141000
25.141407	2.886250	47.187000
25.224342	2.888389	47.234000
25.249957	2.895900	47.388000
25.449043	2.867636	47.434000
25.473889	2.860368	47.802000
25.499573	2.856770	47.848000
25.524318	2.859503	47.895000
25.549499	2.856476	47.941000
25.574266	2.859974	47.987000
25.598726	2.856608	48.033000
25.623709	2.853424	48.079000
25.649097	2.848436	48.126000
25.674577	2.846871	48.172000
25.699649	2.851366	48.219000
25.725089	2.854987	48.264000
25.816860	2.859584	48.311000
25.841437	2.854185	48.481000
25.927747	2.855866	48.528000
25.953187	2.855381	48.687000
25.978289	2.859263	48.733000
26.003166	2.865404	48.779000
26.028689	2.867837	48.826000
26.053616	2.881253	48.871000
26.079242	2.890031	48.919000
26.103668	2.893498	48.964000
26.128099	2.894603	49.011000
26.153170	2.895567	49.057000
26.177827	2.891978	49.103000
26.203603	2.890041	49.148000
26.228278	2.888501	49.195000
26.253985	2.882722	49.241000
26.279344	2.883135	49.288000
26.304246	2.884130	49.335000
26.329125	2.884851	49.380000
26.412093	2.889747	49.427000
26.437558	2.897117	49.581000
26.523843	2.883499	49.628000
26.549452	2.887174	49.787000
26.574502	2.879739	49.834000
26.599550	2.882743	49.879000
26.624650	2.882834	49.926000
26.649477	2.883529	49.972000
26.674268	2.885821	50.018000
26.698805	2.881106	50.064000
26.724136	2.891379	50.110000
26.748734	2.895547	50.156000
26.774286	2.887427	50.203000
26.799357	2.880411	50.248000
26.824639	2.898031	50.295000
26.849370	2.896754	50.341000
26.874388	2.896925	50.388000
26.899453	2.898767	50.434000
26.924005	2.897249	50.480000
27.008510	2.900145	50.527000
27.033535	2.905107	50.682000
27.120204	2.902568	50.728000
27.145600	2.906990	50.887000
27.170550	2.912536	50.933000
27.195521	2.912304	50.979000
27.219425	2.914207	51.026000
27.244876	2.915575	51.073000
27.270320	2.918730	51.119000
27.295020	2.919572	51.165000
27.321010	2.923424	51.212000
27.345862	2.925665	51.258000
27.371232	2.930318	51.304000
27.396498	2.930672	51.351000
27.421644	2.928591	51.397000
27.446260	2.932670	51.444000
27.470630	2.937880	51.490000
27.495376	2.935436	51.536000
27.520879	2.937758	51.581000
27.720023	2.940619	51.628000
27.744735	2.944729	51.994000
27.769681	2.941054	52.041000
27.794731	2.939899	52.086000
27.819558	2.936925	52.132000
27.844284	2.931262	52.179000
27.868784	2.930693	52.225000
27.893953	2.929900	52.271000
27.918921	2.929628	52.317000
27.944213	2.924050	52.363000
27.969774	2.917876	52.410000
27.994818	2.916490	52.456000
28.019912	2.910306	52.502000
28.043829	2.910377	52.547000
28.068143	2.913092	52.593000
28.093387	2.916640	52.640000
28.118873	2.918882	52.686000
28.203003	2.931005	52.732000
28.227953	2.928451	52.887000
28.427637	2.940852	52.933000
28.452020	2.947323	53.301000
28.476248	2.947202	53.346000
28.501599	2.947725	53.393000
28.526544	2.947120	53.439000
28.552579	2.944182	53.485000
28.577137	2.942518	53.532000
28.602610	2.952047	53.578000
28.627804	2.968268	53.624000
28.652889	2.980663	53.671000
28.678204	2.993923	53.718000
28.702553	2.998295	53.764000
28.795169	3.005220	53.810000
28.820163	3.026044	53.981000
28.907082	3.057720	54.028000
28.932011	3.063893	54.188000
28.957995	3.073816	54.234000
28.982674	3.082333	54.280000
29.008227	3.083581	54.326000
29.032423	3.093247	54.372000
29.056975	3.096285	54.419000
29.081975	3.101754	54.465000
29.106964	3.109826	54.511000
29.132492	3.118303	54.558000
29.157190	3.124010	54.604000
29.183003	3.130596	54.650000
29.208203	3.138628	54.696000
29.233040	3.142303	54.742000
29.257934	3.148405	54.789000
29.282118	3.153959	54.834000
29.307546	3.151696	54.880000
29.391067	3.152852	54.927000
29.416342	3.157938	55.081000
29.502990	3.151340	55.127000
29.528365	3.156518	55.288000
29.553787	3.162800	55.334000
29.577994	3.159474	55.379000
29.603328	3.162275	55.427000
29.628323	3.158488	55.473000
29.653079	3.163078	55.519000
29.678278	3.166096	55.566000
29.703651	3.165692	55.612000
29.728966	3.169771	55.659000
29.753893	3.171773	55.705000
29.778699	3.177510	55.750000
29.803311	3.182312	55.795000
29.828123	3.192892	55.842000
29.853288	3.201925	55.889000
29.878275	3.214203	55.936000
29.904111	3.223308	55.981000
29.987686	3.235443	56.029000
30.013431	3.245016	56.182000
30.098456	3.273633	56.229000
30.123277	3.280440	56.387000
30.147747	3.283216	56.434000
30.172924	3.289504	56.479000
30.197953	3.291094	56.526000
30.223631	3.299376	56.572000
30.248669	3.311727	56.619000
30.273887	3.305449	56.665000
30.298979	3.312202	56.711000
30.322803	3.313277	56.756000
30.347137	3.312353	56.802000
30.372456	3.316825	56.848000
30.397684	3.323547	56.895000
30.422930	3.321428	56.940000
30.448265	3.329191	56.987000
30.473405	3.333773	57.034000
30.498090	3.336837	57.078000
30.697758	3.343843	57.125000
30.723081	3.354902	57.493000
30.747308	3.355165	57.540000
30.771677	3.351757	57.586000
30.797109	3.349713	57.632000
30.822120	3.348047	57.678000
30.847130	3.345504	57.724000
30.872140	3.348921	57.769000
30.897608	3.360347	57.816000
30.921976	3.363225	57.862000
30.947082	3.366490	57.909000
30.972124	3.367419	57.955000
30.996598	3.367687	58.001000
31.021961	3.370453	58.047000
31.046623	3.364240	58.093000
31.072597	3.363709	58.139000
31.097766	3.360489	58.186000
31.181180	3.357778	58.232000
31.206428	3.335783	58.387000
31.404640	3.274396	58.434000
31.429832	3.277662	58.801000
31.455016	3.274366	58.846000
31.480462	3.273402	58.894000
31.505437	3.274467	58.940000
31.530900	3.268314	58.985000
31.555977	3.258901	59.032000
31.580787	3.246194	59.078000
31.605153	3.232475	59.124000
31.629623	3.224741	59.171000
31.655218	3.211124	59.217000
31.680581	3.202161	59.262000
31.774116	3.197329	59.310000
31.799346	3.165600	59.481000
31.886052	3.156081	59.528000
31.911690	3.143440	59.688000
31.936389	3.138314	59.734000
31.960807	3.130141	59.780000
31.984994	3.118697	59.826000
32.010757	3.114587	59.873000
32.035594	3.106974	59.919000
32.060922	3.093133	59.965000
32.086153	3.086669	60.011000
32.111101	3.082697	60.058000
32.136381	3.074361	60.104000
32.160838	3.067956	60.149000
32.185753	3.066920	60.196000
32.210894	3.054041	60.243000
32.235959	3.054853	60.288000
32.261383	3.048100	60.335000
32.286305	3.043062	60.381000
32.370915	3.040437	60.428000
32.395122	3.019088	60.582000
32.481361	2.997626	60.629000
32.505940	2.991888	60.787000
32.530554	2.992404	60.833000
32.555821	2.987457	60.879000
32.580961	2.983166	60.925000
32.606505	2.982551	60.972000
32.631680	2.973839	61.019000
32.656905	2.974833	61.064000
32.681964	2.976110	61.111000
32.706832	2.975586	61.157000
32.731127	2.967797	61.203000
32.756106	2.971713	61.249000
32.781042	2.962870	61.295000
32.805921	2.961383	61.342000
32.831477	2.959681	61.388000
32.856582	2.953700	61.433000
32.882218	2.953655	61.480000
32.964923	2.953533	61.526000
32.989571	2.942757	61.681000
33.076448	2.934240	61.727000
33.101769	2.930205	61.888000
33.127159	2.917017	61.934000
33.151577	2.920979	61.979000
33.177090	2.915483	62.025000
33.202031	2.910214	62.071000
33.226994	2.910335	62.117000
33.251639	2.906210	62.163000
33.276076	2.900205	62.210000
33.301720	2.895991	62.257000
33.326741	2.895616	62.303000
33.352200	2.888439	62.349000
33.376841	2.887384	62.395000
33.402046	2.882221	62.441000
33.427106	2.878270	62.487000
33.451589	2.862638	62.533000
33.476226	2.895657	62.579000
33.675908	2.884140	62.626000
33.700848	2.853241	62.994000
33.726353	2.854326	63.040000
33.751371	2.852948	63.087000
33.776803	2.854901	63.133000
33.801978	2.862254	63.180000
33.827076	2.863693	63.225000
33.851578	2.865772	63.271000
33.876331	2.870749	63.318000
33.900660	2.866167	63.363000
33.925881	2.867070	63.410000
33.951152	2.869472	63.456000
33.976615	2.868861	63.503000
34.002389	2.871844	63.549000
34.027326	2.874328	63.595000
34.052401	2.870780	63.642000
34.077318	2.883005	63.688000
34.160015	2.880309	63.734000
34.185152	2.899691	63.888000
34.384795	2.932310	63.934000
34.409831	2.935505	64.302000
34.434902	2.932962	64.348000
34.460438	2.930023	64.394000
34.485755	2.936781	64.441000
34.510907	2.934959	64.488000
34.523381	2.943014	64.535000
34.560124	2.937230	64.580000
34.585314	2.938109	64.627000
34.610266	2.939032	64.673000
34.635456	2.939856	64.719000
34.660877	2.950212	64.765000
34.753351	2.958409	64.812000
34.777638	2.985608	64.981000
34.864112	2.997379	65.028000
34.888803	2.999440	65.187000
34.913378	3.000686	65.234000
34.939033	3.007591	65.279000
34.964250	3.018799	65.326000
34.989771	3.018688	65.372000
35.015172	3.033997	65.418000
35.039637	3.035986	65.464000
35.065027	3.043597	65.511000
35.090013	3.054099	65.557000
35.114247	3.054833	65.604000
35.139191	3.059156	65.649000
35.164846	3.061905	65.696000
35.189721	3.064261	65.742000
35.214404	3.070069	65.788000
35.239929	3.074800	65.834000
35.264793	3.072728	65.880000
35.348085	3.082625	65.927000
35.372799	3.103329	66.081000
35.459856	3.110902	66.127000
35.485300	3.119919	66.288000
35.510383	3.122963	66.334000
35.536065	3.131960	66.380000
35.560375	3.134113	66.426000
35.585523	3.136161	66.472000
35.610767	3.142813	66.519000
35.635769	3.147968	66.564000
35.660694	3.152052	66.612000
35.685166	3.159054	66.657000
35.710537	3.157664	66.704000
35.736188	3.160398	66.751000
35.761428	3.158730	66.796000
35.786288	3.159514	66.844000
35.811905	3.162526	66.889000
35.836868	3.169072	66.935000
35.861617	3.168658	66.982000
35.945182	3.177620	67.029000
35.970418	3.180688	67.184000
36.056169	3.185011	67.229000
36.081448	3.197223	67.388000
36.106638	3.194322	67.435000
36.132124	3.195236	67.481000
36.157234	3.193224	67.527000
36.181133	3.183448	67.573000
36.205839	3.187285	67.620000
36.231375	3.186006	67.666000
36.256373	3.181315	67.712000
36.281986	3.178136	67.759000
36.307180	3.182109	67.805000
36.332536	3.184166	67.851000
36.357703	3.184137	67.898000
36.382455	3.191000	67.944000
36.407434	3.186481	67.990000
36.432052	3.191915	68.036000
36.456808	3.196838	68.082000
36.655506	3.194453	68.128000
36.680927	3.216354	68.496000
36.706401	3.217917	68.542000
36.731445	3.225044	68.589000
36.757120	3.228658	68.636000
36.781956	3.227905	68.682000
36.807435	3.236781	68.728000
36.831987	3.240355	68.774000
36.856386	3.238803	68.820000
36.881265	3.237459	68.866000
36.906463	3.233470	68.913000
36.931991	3.231827	68.959000
36.957016	3.231817	69.005000
36.982226	3.238192	69.051000
37.007654	3.241876	69.098000
37.032495	3.245562	69.144000
37.057420	3.248852	69.191000
37.140436	3.247593	69.236000
37.165914	3.240486	69.391000
37.365234	3.227945	69.438000
37.389894	3.229896	69.806000
37.415695	3.225670	69.852000
37.440455	3.227236	69.898000
37.466229	3.222708	69.943000
37.490655	3.218810	69.991000
37.515661	3.217673	70.037000
37.540425	3.212169	70.082000
37.565650	3.205764	70.129000
37.590598	3.204576	70.174000
37.615654	3.205476	70.221000
37.641332	3.205855	70.266000
37.730859	3.207023	70.313000
37.757098	3.213438	70.480000
37.843141	3.209733	70.528000
37.868766	3.205487	70.688000
37.894475	3.203236	70.735000
37.919711	3.212679	70.780000
37.944778	3.216536	70.826000
37.969507	3.221844	70.873000
37.994709	3.224017	70.919000
38.018290	3.230831	70.964000
38.043634	3.238792	71.011000
38.068801	3.243225	71.057000
38.093407	3.249857	71.103000
38.118785	3.249584	71.149000
38.144264	3.251105	71.196000
38.169911	3.253997	71.242000
38.193976	3.254386	71.288000
38.219469	3.256822	71.334000
38.244452	3.260487	71.380000
38.327714	3.267246	71.427000
38.353219	3.295744	71.581000
38.439189	3.320869	71.627000
38.465371	3.328168	71.788000
38.489965	3.338234	71.834000
38.515206	3.345531	71.879000
38.540473	3.352981	71.926000
38.564015	3.359906	71.972000
38.588951	3.368421	72.018000
38.614553	3.380256	72.064000
38.639812	3.390265	72.110000
38.664188	3.397645	72.156000
38.689662	3.412060	72.203000
38.715191	3.423800	72.249000
38.739574	3.438436	72.295000
38.763654	3.448759	72.341000
38.788714	3.458908	72.387000
38.814492	3.471102	72.433000
38.838948	3.481525	72.479000
38.924096	3.492913	72.526000
38.948695	3.535211	72.680000
39.036075	3.582756	72.728000
39.060850	3.597593	72.887000
39.085664	3.613960	72.934000
39.110850	3.622791	72.979000
39.134619	3.639381	73.026000
39.159959	3.648590	73.073000
39.185629	3.655505	73.119000
39.210835	3.667394	73.165000
39.235860	3.674906	73.210000
39.260954	3.689994	73.258000
39.286652	3.699139	73.304000
39.311354	3.709886	73.350000
39.335522	3.720485	73.396000
39.360924	3.729822	73.443000
39.385887	3.739998	73.490000
39.411097	3.742971	73.536000
39.436598	3.755357	73.582000
39.635703	3.755459	73.628000
39.660075	3.823771	73.995000
39.685922	3.841034	74.041000
39.710298	3.849378	74.087000
39.734701	3.868345	74.133000
39.760133	3.882124	74.180000
39.784378	3.894938	74.225000
39.809599	3.912678	74.271000
39.835001	3.931867	74.318000
39.860487	3.949867	74.365000
39.885538	3.969929	74.410000
39.909972	3.989511	74.456000
39.935642	4.010701	74.502000
39.959899	4.024531	74.548000
39.984851	4.043593	74.595000
40.010160	4.073164	74.642000
40.035654	4.096072	74.688000
40.119254	4.116215	74.735000
40.145105	4.188752	74.889000
40.343711	4.364936	74.935000
40.369031	4.389189	75.303000
40.394110	4.415701	75.349000
40.418402	4.433792	75.395000
40.443115	4.463636	75.442000
40.469039	4.480741	75.489000
40.493999	4.506997	75.535000
40.519016	4.528595	75.581000
40.544399	4.547152	75.628000
40.570369	4.566818	75.674000
40.594426	4.586480	75.720000
40.619324	4.610363	75.766000
40.710673	4.622567	75.812000
40.735959	4.708947	75.981000
40.823070	4.776953	76.027000
40.847680	4.796497	76.187000
40.873055	4.817696	76.234000
40.898863	4.841980	76.280000
40.922951	4.861056	76.326000
40.947358	4.882013	76.373000
40.972836	4.903279	76.419000
40.997749	4.919879	76.465000
41.022544	4.941311	76.511000
41.048168	4.967374	76.558000
41.073508	4.982887	76.603000
41.098756	5.001007	76.650000
41.123793	5.022643	76.697000
41.149797	5.033176	76.743000
41.173770	5.049129	76.790000
41.198514	5.074366	76.837000
41.223516	5.086601	76.882000
41.307351	5.103718	76.928000
41.333040	5.152406	77.083000
41.418353	5.203980	77.128000
41.443886	5.220806	77.288000
41.468941	5.238311	77.334000
41.492948	5.259061	77.380000
41.517804	5.273886	77.426000
41.543674	5.288899	77.473000
41.569291	5.315765	77.519000
41.593651	5.338209	77.565000
41.618861	5.358155	77.611000
41.644136	5.382484	77.657000
41.668531	5.403213	77.703000
41.693567	5.426696	77.749000
41.718312	5.445686	77.796000
41.743302	5.473622	77.842000
41.768400	5.504239	77.888000
41.793740	5.525650	77.935000
41.818761	5.549074	77.981000
41.902707	5.567440	78.027000
41.927379	5.662403	78.180000
42.013940	5.762292	78.228000
42.039219	5.785939	78.388000
42.063748	5.807553	78.434000
42.088589	5.833721	78.480000
42.114440	5.855437	78.526000
42.139661	5.870956	78.573000
42.164697	5.892906	78.619000
42.190264	5.905539	78.665000
42.215135	5.922791	78.712000
42.238566	5.949385	78.758000
42.264152	5.971032	78.804000
42.289396	6.000044	78.850000
42.313972	6.031918	78.896000
42.339465	6.056574	78.943000
42.364498	6.087832	78.989000
42.390122	6.105477	79.035000
42.415017	6.114435	79.081000
42.614072	6.125227	79.128000
42.639070	6.287814	79.495000
42.662301	6.316282	79.540000
42.688160	6.354818	79.586000
42.712931	6.377931	79.633000
42.738379	6.402541	79.679000
42.763965	6.438053	79.726000
42.789397	6.460039	79.772000
42.814268	6.487991	79.818000
42.839105	6.512530	79.865000
42.865471	6.542379	79.912000
42.889286	6.568876	79.958000
42.913915	6.594989	80.004000
42.939539	6.621931	80.050000
42.964403	6.646234	80.096000
42.989409	6.679191	80.143000
43.014999	6.711780	80.189000
43.098241	6.739531	80.236000
43.123335	6.834851	80.390000
43.323267	7.048192	80.436000
43.347158	7.076717	80.804000
43.372452	7.107338	80.851000
43.397761	7.131712	80.896000
43.421765	7.159935	80.942000
43.447435	7.191139	80.988000
43.473048	7.221075	81.034000
43.497862	7.250314	81.080000
43.522295	7.298474	81.126000
43.547381	7.331735	81.173000
43.572187	7.366819	81.219000
43.597136	7.398217	81.265000
43.690029	7.425832	81.311000
43.714777	7.558034	81.481000
43.801719	7.713818	81.528000
43.826925	7.762377	81.688000
43.851516	7.810073	81.734000
43.876787	7.859160	81.781000
43.901508	7.900877	81.827000
43.926510	7.957926	81.873000
43.951354	8.010626	81.920000
43.977728	8.058976	81.967000
44.002158	8.120891	82.013000
44.027186	8.154946	82.058000
44.052273	8.212812	82.105000
44.077444	8.263604	82.150000
44.101216	8.319576	82.196000
44.126376	8.368254	82.243000
44.151754	8.426277	82.288000
44.176476	8.483707	82.334000
44.201789	8.537112	82.380000
44.286176	8.617402	82.427000
44.310053	8.812638	82.582000
44.397064	9.025114	82.628000
44.421713	9.096290	82.789000
44.447172	9.163550	82.835000
44.472043	9.222520	82.880000
44.496922	9.287227	82.927000
44.522454	9.351583	82.973000
44.547844	9.412297	83.019000
44.573019	9.478243	83.066000
44.597257	9.550022	83.112000
44.622850	9.619444	83.158000
44.646657	9.690165	83.203000
44.672074	9.759965	83.250000
44.697383	9.826871	83.296000
44.722604	9.898653	83.342000
44.747848	9.970045	83.388000
44.772893	10.040189	83.436000
44.798602	10.115976	83.481000
44.881291	10.190953	83.528000
44.906723	10.454285	83.684000
44.992244	10.698191	83.729000
45.017668	10.750444	83.888000
45.043446	10.818086	83.934000
45.068429	10.889102	83.979000
45.093973	10.967013	84.026000
45.118917	11.050415	84.072000
45.143662	11.134251	84.118000
45.167907	11.222264	84.164000
45.193577	11.296378	84.211000
45.218180	11.369952	84.258000
45.243089	11.420651	84.303000
45.269378	11.470849	84.350000
45.294327	11.516432	84.396000
45.318917	11.564190	84.442000
45.343969	11.630212	84.487000
45.368683	11.713031	84.534000
45.392779	11.795206	84.579000
45.591730	11.890721	84.626000
45.617723	12.583692	84.993000
45.642149	12.660217	85.040000
45.667585	12.737846	85.086000
45.692541	12.822924	85.131000
45.718403	12.912514	85.178000
45.742841	13.011197	85.225000
45.767658	13.112293	85.271000
45.791823	13.213526	85.317000
45.816560	13.324804	85.363000
45.842614	13.429243	85.409000
45.867566	13.555073	85.455000
45.892384	13.668564	85.501000
45.917774	13.777134	85.547000
45.942845	13.886052	85.593000
45.967539	13.982805	85.639000
45.991819	14.083144	85.686000
46.075630	14.174511	85.731000
46.101508	14.476998	85.887000
46.300736	15.144214	85.933000
46.326153	15.238593	86.302000
46.350894	15.337537	86.348000
46.376968	15.416571	86.394000
46.401597	15.506444	86.440000
46.425600	15.605012	86.487000
46.451125	15.701542	86.533000
46.475781	15.806736	86.579000
46.501006	15.912480	86.625000
46.525735	16.020653	86.671000
46.551862	16.133748	86.718000
46.577249	16.257668	86.765000
46.669039	16.375980	86.811000
46.693826	16.800443	86.981000
46.780146	17.170966	87.028000
46.805259	17.282515	87.188000
46.830687	17.396383	87.234000
46.855701	17.509953	87.280000
46.880887	17.622916	87.326000
46.906711	17.735763	87.372000
46.931298	17.863241	87.419000
46.956819	17.982129	87.465000
46.982032	18.098142	87.512000
47.006688	18.216690	87.558000
47.031241	18.338712	87.605000
47.056254	18.455825	87.651000
47.081790	18.561024	87.697000
47.106347	18.662108	87.744000
47.132455	18.768507	87.790000
47.157795	18.885293	87.836000
47.182186	19.011075	87.882000
47.265759	19.140804	87.928000
47.289985	19.597256	88.084000
47.376382	20.095328	88.129000
47.401956	20.247954	88.288000
47.426278	20.397328	88.334000
47.451883	20.555187	88.379000
47.477081	20.714802	88.426000
47.501634	20.873677	88.473000
47.526175	21.036279	88.518000
47.551626	21.197126	88.565000
47.576006	21.365641	88.610000
47.601699	21.532372	88.657000
47.627016	21.698678	88.703000
47.651976	21.875182	88.750000
47.677116	22.023793	88.796000
47.702402	22.155726	88.842000
47.726763	22.289436	88.888000
47.751146	22.446166	88.934000
47.776455	22.595729	88.980000
47.860355	22.744261	89.026000
47.885207	23.316950	89.180000
47.972311	23.976852	89.227000
47.997320	24.134187	89.388000
48.022929	24.305486	89.434000
48.047274	24.482732	89.480000
48.071531	24.658993	89.526000
48.096621	24.854003	89.572000
48.122349	25.067374	89.619000
48.147543	25.295865	89.665000
48.172507	25.521004	89.712000
48.198239	25.724243	89.759000
48.223832	25.909786	89.805000
48.248873	26.095609	89.852000
48.274055	26.279675	89.897000
48.298381	26.476487	89.943000
48.322630	26.699648	89.990000
48.348047	26.929741	90.036000
48.373917	27.143860	90.083000
48.571674	27.347165	90.129000
48.597617	28.902784	90.495000
48.622535	29.120812	90.542000
48.647514	29.330885	90.588000
48.672977	29.538112	90.634000
48.697598	29.717653	90.681000
48.721693	29.866510	90.725000
48.745747	29.992600	90.771000
48.771221	30.088124	90.817000
48.796507	30.175077	90.863000
48.820791	30.269203	90.909000
48.846066	30.396166	90.955000
48.870968	30.550862	91.000000
48.895263	30.725662	91.046000
48.920138	30.923436	91.093000
48.945582	31.118468	91.139000
48.970004	31.324785	91.185000
49.054894	31.539045	91.231000
49.079769	32.240085	91.386000
49.278917	33.804055	91.432000
49.304826	33.994419	91.801000
49.328675	34.193411	91.846000
49.353389	34.407341	91.893000
49.378660	34.638989	91.939000
49.403608	34.856580	91.986000
49.429125	35.062513	92.032000
49.454365	35.251957	92.077000
49.479712	35.443371	92.124000
49.504215	35.644916	92.170000
49.529424	35.848606	92.216000
49.554734	36.058966	92.263000
49.646574	36.261304	92.309000
49.672444	37.053141	92.481000
49.758603	37.755697	92.527000
49.784404	37.930810	92.688000
49.809813	38.122582	92.734000
49.834919	38.333610	92.779000
49.859302	38.558474	92.826000
49.884262	38.795742	92.872000
49.909510	39.028645	92.918000
49.933582	39.249496	92.964000
49.959694	39.465995	93.011000
49.984542	39.692098	93.058000
50.009606	39.929431	93.103000
50.034416	40.178376	93.150000
50.060136	40.452551	93.196000
50.085273	40.742598	93.242000
50.108849	41.040427	93.288000
50.134208	41.349587	93.334000
50.159076	41.667436	93.381000
50.243064	41.992231	93.427000
50.268657	42.952769	93.581000
