Sample	2mm tape 
date	08/01/2025
	
Temperature (K)	77.00
Angle (deg.)	0.000000
field / T	0.150000
	
		
Approx. trace time (s)	120.0	
		
Current / A	V1  -sample/ uV	time/s
-0.016050	1.836252	0.000000
-0.016081	1.833614	0.046000
-0.016235	1.850597	0.092000
-0.016093	1.850638	0.465000
-0.016118	1.853878	0.512000
-0.016013	1.853580	0.558000
-0.006931	1.853979	0.603000
-0.016578	1.857330	0.650000
-0.016278	1.854202	0.696000
-0.015921	1.847807	0.742000
-0.016278	1.847105	0.787000
-0.015964	1.843480	0.834000
-0.016259	1.844325	0.880000
-0.016026	1.840089	0.926000
-0.016595	1.839346	0.971000
-0.016080	1.832678	1.137000
0.078897	1.827735	1.184000
0.104699	1.824970	1.354000
0.128224	1.825308	1.400000
0.154165	1.824515	1.446000
0.180627	1.822513	1.493000
0.204130	1.820017	1.539000
0.229555	1.822680	1.585000
0.254028	1.816625	1.631000
0.279491	1.814840	1.677000
0.304504	1.810645	1.723000
0.329254	1.806292	1.768000
0.353984	1.804892	1.815000
0.378584	1.802628	1.860000
0.404378	1.799762	1.907000
0.429103	1.796669	1.953000
0.454540	1.791558	1.999000
0.479357	1.795835	2.045000
0.562673	1.794535	2.092000
0.587992	1.789865	2.246000
0.674315	1.788970	2.293000
0.699716	1.789522	2.453000
0.724784	1.791195	2.500000
0.749939	1.789512	2.546000
0.774957	1.786636	2.592000
0.800549	1.788455	2.637000
0.825414	1.788616	2.684000
0.849716	1.786903	2.729000
0.873963	1.784598	2.775000
0.898687	1.785093	2.821000
0.924128	1.780534	2.868000
0.949480	1.779907	2.914000
0.974492	1.781470	2.960000
0.999783	1.784871	3.006000
1.024213	1.784790	3.052000
1.049080	1.785827	3.098000
1.073430	1.785559	3.145000
1.157665	1.786029	3.190000
1.183142	1.786433	3.345000
1.270529	1.798140	3.392000
1.295527	1.799651	3.553000
1.320815	1.803856	3.599000
1.346196	1.806890	3.645000
1.371128	1.810382	3.692000
1.395797	1.810302	3.738000
1.420362	1.815144	3.785000
1.445659	1.817023	3.831000
1.470335	1.820117	3.877000
1.495385	1.824393	3.923000
1.520737	1.829620	3.969000
1.545510	1.835357	4.015000
1.570866	1.840599	4.061000
1.595449	1.847357	4.107000
1.620400	1.852892	4.153000
1.645461	1.859938	4.200000
1.670521	1.867293	4.246000
1.869468	1.875093	4.293000
1.894688	1.913194	4.660000
1.920007	1.915894	4.706000
1.945109	1.920139	4.753000
1.970571	1.924522	4.799000
1.996069	1.924461	4.845000
2.021206	1.930552	4.891000
2.044935	1.936087	4.938000
2.070014	1.941754	4.983000
2.095162	1.946808	5.030000
2.120223	1.949507	5.076000
2.144972	1.952838	5.122000
2.170289	1.957883	5.168000
2.195359	1.962817	5.214000
2.221048	1.968644	5.260000
2.245098	1.973208	5.307000
2.269896	1.978711	5.353000
2.353693	1.982891	5.399000
2.378620	1.996699	5.553000
2.578340	2.028532	5.599000
2.603431	2.030193	5.968000
2.628388	2.030934	6.014000
2.652945	2.031531	6.060000
2.677248	2.033221	6.105000
2.701879	2.037249	6.151000
2.726887	2.036124	6.196000
2.751937	2.037108	6.243000
2.776962	2.039010	6.288000
2.802381	2.040115	6.335000
2.827261	2.042105	6.381000
2.852434	2.040595	6.428000
2.940654	2.040095	6.473000
2.965778	2.040656	6.637000
3.057006	2.034185	6.683000
3.081567	2.031742	6.852000
3.107126	2.029441	6.899000
3.132137	2.025913	6.945000
3.157585	2.022753	6.990000
3.182399	2.019286	7.036000
3.206957	2.015167	7.083000
3.231725	2.011376	7.129000
3.256112	2.006148	7.175000
3.281611	2.004140	7.220000
3.306152	2.002130	7.266000
3.331337	2.000046	7.313000
3.356948	1.996821	7.359000
3.382101	1.994721	7.405000
3.406972	1.992259	7.451000
3.431390	1.991093	7.498000
3.456452	1.989856	7.544000
3.540317	1.988488	7.590000
3.566090	1.982009	7.746000
3.652930	1.970806	7.792000
3.678513	1.972845	7.953000
3.703488	1.971932	7.999000
3.728818	1.975510	8.045000
3.753703	1.979544	8.092000
3.778030	1.978449	8.137000
3.803228	1.972617	8.185000
3.828172	1.966698	8.231000
3.853384	1.964707	8.277000
3.878201	1.962513	8.322000
3.903053	1.961816	8.369000
3.928200	1.961426	8.414000
3.953346	1.963398	8.461000
3.978534	1.961704	8.507000
4.002217	1.963185	8.552000
4.027733	1.965521	8.599000
4.052654	1.966471	8.645000
4.136769	1.968968	8.691000
4.161984	1.884176	8.846000
4.248943	1.906108	8.891000
4.274245	1.929637	9.052000
4.298744	1.945186	9.098000
4.323592	1.952646	9.145000
4.348458	1.957550	9.192000
4.373676	1.962922	9.238000
4.398689	1.964728	9.284000
4.423920	1.965521	9.330000
4.449214	1.967467	9.375000
4.473910	1.967507	9.422000
4.498488	1.967285	9.468000
4.522925	1.969190	9.514000
4.547766	1.969539	9.560000
4.573012	1.967932	9.605000
4.597598	1.969292	9.652000
4.623272	1.973158	9.699000
4.648811	1.974314	9.745000
4.847562	1.970296	9.791000
4.872688	1.982628	10.158000
4.896930	1.988134	10.203000
4.921622	1.992560	10.250000
4.946377	1.991113	10.296000
4.971702	1.991632	10.342000
4.997133	1.989138	10.388000
5.022599	1.987413	10.435000
5.047731	1.986106	10.482000
5.072842	1.986847	10.528000
5.098094	1.984616	10.574000
5.123302	1.983235	10.620000
5.147861	1.980590	10.667000
5.171880	1.977792	10.713000
5.197261	1.973310	10.759000
5.222149	1.971110	10.804000
5.247959	1.966269	10.851000
5.332340	1.965885	10.898000
5.357422	1.955927	11.053000
5.557350	1.930381	11.100000
5.582172	1.923496	11.468000
5.606935	1.919185	11.515000
5.631247	1.916759	11.561000
5.656101	1.911466	11.607000
5.682054	1.908545	11.653000
5.706741	1.907984	11.699000
5.732220	1.908166	11.745000
5.757247	1.906219	11.791000
5.782671	1.901903	11.837000
5.806562	1.899547	11.883000
5.830760	1.895599	11.929000
5.918656	1.897662	11.975000
5.943185	1.887618	12.136000
6.036112	1.892804	12.182000
6.061316	1.895387	12.354000
6.086851	1.892784	12.400000
6.111809	1.888229	12.445000
6.135947	1.886784	12.492000
6.160180	1.882280	12.538000
6.185142	1.882149	12.582000
6.209799	1.882012	12.629000
6.234749	1.881233	12.674000
6.259717	1.881425	12.719000
6.284552	1.879677	12.765000
6.308860	1.883291	12.811000
6.333541	1.884186	12.858000
6.358905	1.884989	12.903000
6.384164	1.884605	12.950000
6.409267	1.885363	12.996000
6.434593	1.885792	13.042000
6.518736	1.885535	13.088000
6.542749	1.887324	13.243000
6.632320	1.895028	13.289000
6.657656	1.895589	13.453000
6.682051	1.899870	13.500000
6.706316	1.904076	13.546000
6.731418	1.907892	13.591000
6.756412	1.910318	13.637000
6.781492	1.917314	13.684000
6.807033	1.921813	13.730000
6.832359	1.923243	13.776000
6.857421	1.925285	13.822000
6.882497	1.926372	13.869000
6.906629	1.930370	13.915000
6.930997	1.932423	13.961000
6.956573	1.936633	14.007000
6.981132	1.939944	14.053000
7.006436	1.943326	14.099000
7.031957	1.948688	14.146000
7.115796	1.949947	14.191000
7.140656	1.954729	14.347000
7.227713	1.955073	14.393000
7.252640	1.953955	14.554000
7.277260	1.957297	14.600000
7.302291	1.959480	14.645000
7.327354	1.961714	14.691000
7.352191	1.962351	14.738000
7.377952	1.963368	14.784000
7.403305	1.966572	14.830000
7.428444	1.966901	14.877000
7.453045	1.968210	14.923000
7.477855	1.969252	14.969000
7.503058	1.970826	15.016000
7.528054	1.973350	15.061000
7.553450	1.978236	15.108000
7.578739	1.981321	15.154000
7.604329	1.982619	15.201000
7.629514	1.988003	15.247000
7.828189	1.992849	15.294000
7.853214	2.009514	15.661000
7.877454	2.009645	15.707000
7.902321	2.011886	15.753000
7.927671	2.012311	15.800000
7.952213	2.015177	15.845000
7.977415	2.014764	15.891000
8.002829	2.017690	15.937000
8.027909	2.018836	15.984000
8.053252	2.022303	16.029000
8.077610	2.024010	16.076000
8.102134	2.027780	16.121000
8.127017	2.029007	16.168000
8.152496	2.030122	16.214000
8.177145	2.032786	16.260000
8.202457	2.033049	16.306000
8.227445	2.034684	16.352000
8.311106	2.034326	16.398000
8.335855	2.043764	16.553000
8.535149	2.050528	16.600000
8.559827	2.050559	16.967000
8.584609	2.051996	17.013000
8.609908	2.056550	17.059000
8.635003	2.062620	17.105000
8.660434	2.066567	17.151000
8.684898	2.068692	17.196000
8.708925	2.070500	17.242000
8.733515	2.069858	17.289000
8.758821	2.068229	17.334000
8.784145	2.065033	17.381000
8.809409	2.065235	17.427000
8.897564	2.065816	17.472000
8.923033	2.073155	17.637000
9.015866	2.073835	17.683000
9.040344	2.079291	17.853000
9.064776	2.082710	17.899000
9.089612	2.088134	17.946000
9.114833	2.088731	17.992000
9.140166	2.091865	18.038000
9.165106	2.095413	18.084000
9.190573	2.097431	18.130000
9.215718	2.099325	18.177000
9.240889	2.099052	18.222000
9.266429	2.100390	18.269000
9.290933	2.097421	18.316000
9.315291	2.099153	18.362000
9.340273	2.096750	18.408000
9.365729	2.099763	18.454000
9.390649	2.101373	18.500000
9.415815	2.102418	18.547000
9.500407	2.107739	18.594000
9.525565	2.112311	18.749000
9.610958	2.109074	18.795000
9.635787	2.112037	18.954000
9.660647	2.113395	18.999000
9.685557	2.118049	19.045000
9.711314	2.122287	19.092000
9.736420	2.123807	19.137000
9.761431	2.127456	19.184000
9.786848	2.128268	19.230000
9.811668	2.133367	19.277000
9.836593	2.135506	19.323000
9.861226	2.134431	19.370000
9.885883	2.130661	19.416000
9.910854	2.127920	19.462000
9.935899	2.126351	19.507000
9.961492	2.123036	19.553000
9.986310	2.120714	19.600000
10.011597	2.118931	19.646000
10.094102	2.113406	19.692000
10.119699	2.112128	19.847000
10.206203	2.103562	19.893000
10.231152	2.099021	20.053000
10.256894	2.098859	20.098000
10.281716	2.092268	20.146000
10.306629	2.094740	20.191000
10.331373	2.093892	20.237000
10.356185	2.091101	20.284000
10.381160	2.089633	20.330000
10.405554	2.086927	20.376000
10.431451	2.085579	20.422000
10.456345	2.084393	20.469000
10.481545	2.084373	20.515000
10.507121	2.084423	20.561000
10.532078	2.083551	20.608000
10.557163	2.078968	20.653000
10.581759	2.079983	20.700000
10.607188	2.075612	20.746000
10.805502	2.072872	20.793000
10.830414	2.063049	21.160000
10.856042	2.059335	21.206000
10.880620	2.055242	21.252000
10.906155	2.053314	21.299000
10.931572	2.049120	21.345000
10.956465	2.048640	21.391000
10.980850	2.046086	21.436000
11.005723	2.041821	21.483000
11.030065	2.041009	21.528000
11.055605	2.037249	21.575000
11.080716	2.033933	21.621000
11.105714	2.031419	21.668000
11.131318	2.029288	21.714000
11.156257	2.026250	21.760000
11.181945	2.025428	21.806000
11.206323	2.022581	21.853000
11.289768	2.025912	21.899000
11.314865	2.029007	22.054000
11.513912	2.017407	22.100000
11.539663	2.015186	22.468000
11.564504	2.016413	22.515000
11.589755	2.014157	22.561000
11.615503	2.014994	22.607000
11.640388	2.014531	22.654000
11.664679	2.010321	22.700000
11.689568	2.010841	22.747000
11.714351	2.008060	22.792000
11.739455	2.011215	22.838000
11.764799	2.012219	22.885000
11.789974	2.013717	22.931000
11.876691	2.012491	22.977000
11.901662	2.012754	23.136000
11.993806	2.022904	23.183000
12.018520	2.026955	23.354000
12.043559	2.029606	23.400000
12.068965	2.037349	23.446000
12.093927	2.042314	23.492000
12.119005	2.049109	23.538000
12.144032	2.053843	23.585000
12.169180	2.056719	23.631000
12.193512	2.058537	23.676000
12.217948	2.061413	23.722000
12.243397	2.066840	23.769000
12.268174	2.072467	23.815000
12.293928	2.078306	23.861000
12.319350	2.084757	23.908000
12.344160	2.090758	23.953000
12.369438	2.098676	24.000000
12.394261	2.109023	24.046000
12.476860	2.119224	24.092000
12.502344	2.153560	24.247000
12.589357	2.180659	24.294000
12.614717	2.187967	24.453000
12.639774	2.198159	24.500000
12.664952	2.207414	24.546000
12.689899	2.217801	24.592000
12.714861	2.227425	24.638000
12.739697	2.236443	24.685000
12.764170	2.244056	24.730000
12.789072	2.248716	24.777000
12.814745	2.251203	24.823000
12.839940	2.255480	24.870000
12.865124	2.260777	24.917000
12.890795	2.265609	24.963000
12.916085	2.270259	25.009000
12.941180	2.273964	25.056000
12.965652	2.275021	25.102000
12.989807	2.279671	25.147000
13.073522	2.282739	25.193000
13.098333	2.285772	25.347000
13.185276	2.292808	25.394000
13.210010	2.292868	25.553000
13.235190	2.291711	25.599000
13.259835	2.293182	25.645000
13.284296	2.290574	25.690000
13.308773	2.291620	25.737000
13.333866	2.294481	25.783000
13.358940	2.295826	25.827000
13.383743	2.298388	25.873000
13.408989	2.299778	25.920000
13.433880	2.304357	25.966000
13.458359	2.305505	26.012000
13.483623	2.306511	26.059000
13.507980	2.306875	26.105000
13.533603	2.305667	26.151000
13.558365	2.306744	26.197000
13.583512	2.304509	26.243000
13.782707	2.304600	26.288000
13.807027	2.296028	26.655000
13.831922	2.294380	26.702000
13.856952	2.295426	26.748000
13.881834	2.297762	26.794000
13.906771	2.298166	26.840000
13.932189	2.296018	26.886000
13.957109	2.289775	26.933000
13.982271	2.289548	26.979000
14.007635	2.292034	27.025000
14.032381	2.292105	27.071000
14.057053	2.289997	27.117000
14.081313	2.291377	27.163000
14.106529	2.292242	27.210000
14.131823	2.291144	27.256000
14.156817	2.289558	27.302000
14.182426	2.289254	27.348000
14.266709	2.289325	27.394000
14.291280	2.292747	27.549000
14.492035	2.279469	27.595000
14.516406	2.279105	27.966000
14.541261	2.276921	28.012000
14.566055	2.276016	28.058000
14.591119	2.275243	28.104000
14.616143	2.274879	28.150000
14.641445	2.280303	28.196000
14.666650	2.280454	28.243000
14.691836	2.288036	28.288000
14.716624	2.293834	28.335000
14.741316	2.299167	28.381000
14.765440	2.305344	28.427000
14.855252	2.313411	28.472000
14.880058	2.334327	28.637000
14.971885	2.357882	28.682000
14.997999	2.363049	28.853000
15.023201	2.367203	28.900000
15.048317	2.372743	28.946000
15.073018	2.382554	28.991000
15.097251	2.389342	29.038000
15.122109	2.398249	29.082000
15.146246	2.406737	29.128000
15.171629	2.415737	29.174000
15.196759	2.422229	29.220000
15.221688	2.430481	29.266000
15.246878	2.437087	29.313000
15.272014	2.441419	29.358000
15.296904	2.446904	29.404000
15.321535	2.452996	29.452000
15.346240	2.463059	29.497000
15.371384	2.469632	29.543000
15.455521	2.474902	29.590000
15.481013	2.499107	29.744000
15.568908	2.517806	29.790000
15.594170	2.520497	29.953000
15.619140	2.526882	30.000000
15.644232	2.531085	30.046000
15.668890	2.532884	30.092000
15.693956	2.534029	30.139000
15.718683	2.535549	30.185000
15.743463	2.536695	30.231000
15.768434	2.539535	30.276000
15.793488	2.541760	30.322000
15.819100	2.544876	30.368000
15.843424	2.546122	30.414000
15.868388	2.551300	30.461000
15.892887	2.555692	30.507000
15.918160	2.557437	30.553000
15.943229	2.559291	30.600000
15.968286	2.556908	30.646000
16.052823	2.561168	30.692000
16.078224	2.561812	30.847000
16.165117	2.568163	30.894000
16.189841	2.565851	31.054000
16.213973	2.566885	31.100000
16.238775	2.565811	31.146000
16.264140	2.563661	31.191000
16.289322	2.558074	31.238000
16.314557	2.555712	31.284000
16.339639	2.553929	31.330000
16.364572	2.548695	31.376000
16.389645	2.548765	31.422000
16.414346	2.546752	31.469000
16.438944	2.545718	31.515000
16.464453	2.540554	31.561000
16.489240	2.541540	31.608000
16.514980	2.539469	31.654000
16.539820	2.535910	31.700000
16.565297	2.538420	31.747000
16.764271	2.538389	31.793000
16.789062	2.515615	32.159000
16.813730	2.513002	32.206000
16.838317	2.510145	32.252000
16.863090	2.506587	32.298000
16.888678	2.502852	32.345000
16.913803	2.500293	32.391000
16.938836	2.496911	32.437000
16.964254	2.489916	32.484000
16.989850	2.488568	32.530000
17.015163	2.485526	32.577000
17.039579	2.484279	32.623000
17.064414	2.481826	32.669000
17.088888	2.480276	32.715000
17.114700	2.478136	32.761000
17.139476	2.475092	32.808000
17.164505	2.475865	32.854000
17.248400	2.476430	32.900000
17.273483	2.481164	33.054000
17.472515	2.477687	33.101000
17.496441	2.474366	33.468000
17.521555	2.472649	33.514000
17.547033	2.473625	33.560000
17.572519	2.474315	33.606000
17.597602	2.476399	33.653000
17.622475	2.474184	33.699000
17.647535	2.474407	33.745000
17.672736	2.473865	33.791000
17.697212	2.470970	33.837000
17.721580	2.473018	33.883000
17.746864	2.473805	33.930000
17.833513	2.472851	33.975000
17.859003	2.467844	34.137000
17.951899	2.459219	34.183000
17.977506	2.457760	34.354000
18.002495	2.451900	34.400000
18.027718	2.450502	34.447000
18.052662	2.445238	34.494000
18.077480	2.441094	34.539000
18.102493	2.438243	34.586000
18.127564	2.436471	34.632000
18.152336	2.433947	34.677000
18.177791	2.431565	34.724000
18.203079	2.427476	34.770000
18.228419	2.423989	34.817000
18.253586	2.422258	34.864000
18.278158	2.418488	34.910000
18.302851	2.414755	34.956000
18.327922	2.410211	35.003000
18.353270	2.406696	35.048000
18.437528	2.403033	35.094000
18.462778	2.392491	35.250000
18.547805	2.380633	35.296000
18.572640	2.375376	35.454000
18.596845	2.369669	35.500000
18.622223	2.361951	35.546000
18.647727	2.361041	35.593000
18.672953	2.358408	35.639000
18.698699	2.353231	35.686000
18.723088	2.349253	35.732000
18.748845	2.348925	35.778000
18.773445	2.343961	35.823000
18.797877	2.341737	35.870000
18.822625	2.337607	35.916000
18.847471	2.334958	35.962000
18.872687	2.330410	36.009000
18.897906	2.328438	36.055000
18.923664	2.323323	36.101000
18.948770	2.318460	36.148000
19.032710	2.313300	36.194000
19.056926	2.300592	36.349000
19.142783	2.291205	36.395000
19.168108	2.287232	36.554000
19.192966	2.289639	36.599000
19.218143	2.288015	36.646000
19.243504	2.285266	36.692000
19.268821	2.281141	36.738000
19.293826	2.281551	36.784000
19.319142	2.283194	36.831000
19.344193	2.279771	36.877000
19.368035	2.275101	36.923000
19.393102	2.266756	36.970000
19.418058	2.267711	37.015000
19.442851	2.269692	37.062000
19.468571	2.269050	37.108000
19.493306	2.265223	37.154000
19.518400	2.265486	37.199000
19.543039	2.262308	37.246000
19.741413	2.257374	37.292000
19.766140	2.240981	37.659000
19.790992	2.239965	37.704000
19.816724	2.239678	37.750000
19.841363	2.241183	37.797000
19.866455	2.240865	37.842000
19.891442	2.240360	37.888000
19.916576	2.237478	37.935000
19.940835	2.238550	37.981000
19.965597	2.234785	38.027000
19.991281	2.233844	38.074000
20.016738	2.232626	38.120000
20.041617	2.227131	38.166000
20.066490	2.226236	38.212000
20.091882	2.224392	38.259000
20.116951	2.220368	38.304000
20.142103	2.219802	38.351000
20.225063	2.217952	38.397000
20.250058	2.212584	38.552000
20.449758	2.201702	38.599000
20.474526	2.197748	38.966000
20.499879	2.203617	39.012000
20.525123	2.199669	39.059000
20.549768	2.203526	39.104000
20.574223	2.203294	39.149000
20.598733	2.201853	39.196000
20.623512	2.200286	39.242000
20.648752	2.201671	39.288000
20.674344	2.199801	39.334000
20.699157	2.198896	39.381000
20.724630	2.192198	39.427000
20.812802	2.190875	39.473000
20.837485	2.188047	39.636000
20.930894	2.192259	39.682000
20.955109	2.193851	39.854000
20.980293	2.195464	39.900000
21.004928	2.195974	39.946000
21.030215	2.197263	39.992000
21.055687	2.192168	40.038000
21.080633	2.192653	40.085000
21.105849	2.187450	40.131000
21.130760	2.180738	40.176000
21.155772	2.177583	40.223000
21.179731	2.177483	40.269000
21.204408	2.176937	40.315000
21.230017	2.175650	40.361000
21.255353	2.175132	40.408000
21.280761	2.170256	40.453000
21.305922	2.170205	40.500000
21.330849	2.171300	40.546000
21.413769	2.169412	40.593000
21.438458	2.161275	40.746000
21.525650	2.163830	40.793000
21.550534	2.161140	40.954000
21.575942	2.161271	41.000000
21.601232	2.158666	41.046000
21.627177	2.159743	41.093000
21.652016	2.157209	41.139000
21.677402	2.158364	41.185000
21.702342	2.159379	41.232000
21.726777	2.157582	41.278000
21.752035	2.161059	41.325000
21.776224	2.159984	41.371000
21.801612	2.167914	41.416000
21.826564	2.169922	41.462000
21.852310	2.172294	41.509000
21.877114	2.171563	41.556000
21.902369	2.177891	41.602000
21.927934	2.179664	41.648000
22.010510	2.181052	41.694000
22.035800	2.187693	41.848000
22.121728	2.188490	41.894000
22.146724	2.188501	42.054000
22.171993	2.190065	42.099000
22.197276	2.189727	42.146000
22.222251	2.189193	42.192000
22.246116	2.190784	42.238000
22.271471	2.189274	42.285000
22.296619	2.191971	42.330000
22.321529	2.194469	42.376000
22.346604	2.195515	42.423000
22.371898	2.197344	42.469000
22.397514	2.198593	42.516000
22.422092	2.200256	42.561000
22.447207	2.201924	42.608000
22.471656	2.204022	42.654000
22.496448	2.207833	42.700000
22.521856	2.212266	42.746000
22.720778	2.211740	42.792000
22.745890	2.229680	43.159000
22.770942	2.227587	43.204000
22.795827	2.230715	43.250000
22.820583	2.230331	43.296000
22.844885	2.234744	43.342000
22.869315	2.233986	43.388000
22.894035	2.235103	43.434000
22.919816	2.235386	43.480000
22.944840	2.235244	43.527000
22.970449	2.238177	43.573000
22.995675	2.242311	43.618000
23.020754	2.243762	43.666000
23.045660	2.248094	43.712000
23.069751	2.251081	43.758000
23.094556	2.254544	43.804000
23.119208	2.256930	43.850000
23.204381	2.256930	43.895000
23.229343	2.257415	44.051000
23.429072	2.255903	44.098000
23.454320	2.259729	44.466000
23.479007	2.257874	44.512000
23.504420	2.257844	44.559000
23.528484	2.258067	44.605000
23.553742	2.258734	44.651000
23.578880	2.256737	44.697000
23.603903	2.257844	44.744000
23.629290	2.255721	44.789000
23.654328	2.257996	44.836000
23.679691	2.257313	44.883000
23.704801	2.257081	44.929000
23.792350	2.255792	44.975000
23.817438	2.262297	45.137000
23.909031	2.263071	45.183000
23.933962	2.264562	45.354000
23.958875	2.267175	45.399000
23.984421	2.269091	45.446000
24.009661	2.270016	45.492000
24.034872	2.271143	45.538000
24.060230	2.268525	45.585000
24.085028	2.270638	45.631000
24.109773	2.271588	45.678000
24.134214	2.271245	45.724000
24.159744	2.277103	45.770000
24.184740	2.278290	45.817000
24.210132	2.281915	45.862000
24.234955	2.286778	45.908000
24.260072	2.292100	45.954000
24.285038	2.292727	46.000000
24.309642	2.298954	46.047000
24.393336	2.304267	46.093000
24.418640	2.324092	46.248000
24.505455	2.338366	46.294000
24.530403	2.341586	46.453000
24.555964	2.345240	46.500000
24.580791	2.350491	46.545000
24.605417	2.357341	46.592000
24.630321	2.361961	46.638000
24.655315	2.366692	46.685000
24.680131	2.370124	46.730000
24.705016	2.373658	46.777000
24.730027	2.379111	46.822000
24.755431	2.383721	46.869000
24.780486	2.388594	46.916000
24.805848	2.396641	46.962000
24.830383	2.398855	47.007000
24.854952	2.400538	47.053000
24.879755	2.403694	47.100000
24.904851	2.407303	47.146000
24.988754	2.410952	47.193000
25.013731	2.426436	47.346000
25.101317	2.443528	47.392000
25.126597	2.446011	47.554000
25.151319	2.449802	47.600000
25.175842	2.453421	47.647000
25.200604	2.459149	47.692000
25.225212	2.462404	47.738000
25.250841	2.463803	47.785000
25.276227	2.465755	47.831000
25.300720	2.479090	47.877000
25.326440	2.479454	47.922000
25.351584	2.486368	47.970000
25.377072	2.492954	48.016000
25.401196	2.495488	48.063000
25.426431	2.498169	48.109000
25.451141	2.499446	48.155000
25.475939	2.503699	48.201000
25.501546	2.506617	48.247000
25.700359	2.510034	48.294000
25.725442	2.538823	48.660000
25.750826	2.543062	48.706000
25.776084	2.545546	48.753000
25.801001	2.549670	48.800000
25.824539	2.559379	48.845000
25.849826	2.556766	48.892000
25.874914	2.561500	48.937000
25.900306	2.566124	48.984000
25.925775	2.570939	49.030000
25.951011	2.580916	49.076000
25.975871	2.575380	49.122000
26.000996	2.577459	49.169000
26.025519	2.576667	49.215000
26.049878	2.576687	49.261000
26.075018	2.576515	49.307000
26.100468	2.576980	49.354000
26.184375	2.579110	49.399000
26.210093	2.579983	49.554000
26.408785	2.596066	49.600000
26.434095	2.594700	49.968000
26.458494	2.596890	50.015000
26.482846	2.597364	50.061000
26.508338	2.600064	50.107000
26.533161	2.601054	50.154000
26.559070	2.602922	50.200000
26.584185	2.603642	50.247000
26.609437	2.604329	50.292000
26.634602	2.606741	50.338000
26.659510	2.608539	50.385000
26.684132	2.611692	50.431000
26.770171	2.612763	50.477000
26.795388	2.606541	50.637000
26.887788	2.604930	50.684000
26.913106	2.603375	50.853000
26.938103	2.598380	50.900000
26.963325	2.591904	50.946000
26.987943	2.588740	50.991000
27.012156	2.585050	51.038000
27.037267	2.580850	51.084000
27.062557	2.579312	51.131000
27.088245	2.581461	51.177000
27.113178	2.582263	51.223000
27.138535	2.580569	51.270000
27.163462	2.578705	51.316000
27.188668	2.578386	51.362000
27.213656	2.579403	51.409000
27.237688	2.577762	51.454000
27.262316	2.571169	51.501000
27.287475	2.568908	51.547000
27.372089	2.565800	51.592000
27.397151	2.559748	51.746000
27.483822	2.560595	51.793000
27.509285	2.563059	51.953000
27.533672	2.563781	52.000000
27.558653	2.567147	52.046000
27.583494	2.568495	52.093000
27.608626	2.565729	52.139000
27.633432	2.563447	52.184000
27.658938	2.561670	52.230000
27.684266	2.560334	52.277000
27.709214	2.559298	52.324000
27.734489	2.559758	52.370000
27.758605	2.562322	52.416000
27.783208	2.562019	52.462000
27.808231	2.563316	52.508000
27.833527	2.564042	52.554000
27.858383	2.563832	52.599000
27.883360	2.568465	52.646000
27.967899	2.571800	52.692000
27.992340	2.575147	52.847000
28.079639	2.575633	52.893000
28.104200	2.580407	53.054000
28.129096	2.583723	53.100000
28.154332	2.588730	53.147000
28.179801	2.589855	53.193000
28.204599	2.589886	53.239000
28.229765	2.592762	53.285000
28.254747	2.594276	53.331000
28.279720	2.597713	53.377000
28.304721	2.599994	53.423000
28.329087	2.602639	53.469000
28.353987	2.604688	53.516000
28.379344	2.607343	53.562000
28.404427	2.608994	53.608000
28.429582	2.612371	53.654000
28.455001	2.612652	53.700000
28.480122	2.618139	53.746000
28.678261	2.619558	53.793000
28.702547	2.665708	54.159000
28.728021	2.671870	54.205000
28.752508	2.679078	54.252000
28.777983	2.682046	54.297000
28.803338	2.686124	54.345000
28.828363	2.691780	54.391000
28.853897	2.698398	54.437000
28.878851	2.704205	54.483000
28.904109	2.708112	54.528000
28.927699	2.714082	54.575000
28.952730	2.720097	54.621000
28.977891	2.730282	54.667000
29.002713	2.736039	54.713000
29.028193	2.744910	54.759000
29.053452	2.751300	54.805000
29.078652	2.762091	54.852000
29.161226	2.774637	54.898000
29.185834	2.810571	55.052000
29.384938	2.929384	55.098000
29.410310	2.955005	55.466000
29.435566	2.975469	55.512000
29.460960	2.994285	55.559000
29.486213	3.013874	55.605000
29.511384	3.033165	55.651000
29.536601	3.052732	55.698000
29.561630	3.070711	55.744000
29.586073	3.085238	55.791000
29.610814	3.101135	55.837000
29.635520	3.115950	55.883000
29.661327	3.133839	55.929000
29.748763	3.146010	55.975000
29.774489	3.189724	56.137000
29.866873	3.244598	56.184000
29.892213	3.258872	56.354000
29.917132	3.274725	56.401000
29.941416	3.288240	56.446000
29.966354	3.299955	56.493000
29.991168	3.311625	56.539000
30.016477	3.325998	56.584000
30.041087	3.338520	56.630000
30.066166	3.348837	56.676000
30.090920	3.366003	56.722000
30.116080	3.379578	56.769000
30.140815	3.392686	56.815000
30.165734	3.404255	56.862000
30.190857	3.417322	56.907000
30.215723	3.429586	56.953000
30.240969	3.439797	56.999000
30.265802	3.454312	57.045000
30.348917	3.465517	57.091000
30.374054	3.512892	57.246000
30.461801	3.557913	57.292000
30.486376	3.572819	57.453000
30.511038	3.586331	57.499000
30.536309	3.598927	57.545000
30.561286	3.605822	57.592000
30.587007	3.615729	57.638000
30.611705	3.625414	57.684000
30.636432	3.633648	57.729000
30.660622	3.643494	57.775000
30.685305	3.649701	57.820000
30.710814	3.655131	57.868000
30.735620	3.659781	57.914000
30.761000	3.668788	57.960000
30.786043	3.674869	58.006000
30.811638	3.679630	58.052000
30.836565	3.682381	58.098000
30.860928	3.687459	58.145000
30.944091	3.686990	58.190000
30.969159	3.692490	58.345000
31.057109	3.688288	58.391000
31.082501	3.688643	58.554000
31.107749	3.687965	58.600000
31.133473	3.688198	58.647000
31.158671	3.687202	58.694000
31.184182	3.685539	58.740000
31.209213	3.687976	58.786000
31.233840	3.688005	58.832000
31.258364	3.690826	58.878000
31.283091	3.693894	58.925000
31.308644	3.698813	58.970000
31.333744	3.701872	59.018000
31.359040	3.704619	59.064000
31.383958	3.708668	59.110000
31.409171	3.713840	59.156000
31.434096	3.720536	59.202000
31.458126	3.724777	59.248000
31.657443	3.728990	59.294000
31.681409	3.770867	59.661000
31.707270	3.774846	59.707000
31.731824	3.780836	59.752000
31.756941	3.787761	59.799000
31.782449	3.792597	59.846000
31.807239	3.799247	59.891000
31.832702	3.800016	59.938000
31.856481	3.805048	59.983000
31.881469	3.808273	60.030000
31.906838	3.811128	60.077000
31.931946	3.814173	60.122000
31.957038	3.820546	60.169000
31.982240	3.826800	60.215000
32.007922	3.829552	60.261000
32.033060	3.833150	60.308000
32.058435	3.835320	60.354000
32.141253	3.842700	60.400000
32.166506	3.855483	60.556000
32.365878	3.893903	60.602000
32.390681	3.903028	60.969000
32.415840	3.914687	61.015000
32.441034	3.923090	61.061000
32.466363	3.930278	61.107000
32.491184	3.934186	61.154000
32.515502	3.941819	61.200000
32.540366	3.946787	61.246000
32.565810	3.950795	61.293000
32.591077	3.958827	61.339000
32.616428	3.960823	61.385000
32.641457	3.970534	61.432000
32.727915	3.978389	61.478000
32.752829	4.005983	61.637000
32.844884	4.028476	61.682000
32.869517	4.036022	61.854000
32.894546	4.038965	61.900000
32.919906	4.047911	61.946000
32.945134	4.050772	61.992000
32.970224	4.053097	62.038000
32.995553	4.056368	62.085000
33.020789	4.061230	62.131000
33.044616	4.062580	62.177000
33.070232	4.064284	62.223000
33.094720	4.068823	62.270000
33.119875	4.067584	62.316000
33.145065	4.066033	62.362000
33.170498	4.068388	62.408000
33.195661	4.075272	62.454000
33.220482	4.079270	62.500000
33.245826	4.081242	62.546000
33.327947	4.083637	62.592000
33.353383	4.086762	62.746000
33.439849	4.096613	62.793000
33.465600	4.102624	62.954000
33.490779	4.106896	63.000000
33.516295	4.108012	63.047000
33.541413	4.111778	63.093000
33.566438	4.110717	63.139000
33.591563	4.112147	63.185000
33.615792	4.111546	63.231000
33.640875	4.110428	63.278000
33.665762	4.108043	63.324000
33.690925	4.105899	63.369000
33.716207	4.104777	63.416000
33.741175	4.103433	63.461000
33.766588	4.102316	63.508000
33.791183	4.099667	63.554000
33.815927	4.105636	63.601000
33.840476	4.101147	63.646000
33.924898	4.100106	63.693000
33.950257	4.096143	63.848000
34.036189	4.093312	63.893000
34.062040	4.090563	64.054000
34.086804	4.085635	64.100000
34.112055	4.084588	64.146000
34.136039	4.080974	64.192000
34.160776	4.080065	64.238000
34.186297	4.078012	64.285000
34.211256	4.078427	64.331000
34.236788	4.077442	64.377000
34.261829	4.076572	64.424000
34.287031	4.074994	64.469000
34.311714	4.074751	64.515000
34.335955	4.078174	64.560000
34.361207	4.075312	64.607000
34.385897	4.072497	64.653000
34.411003	4.068863	64.699000
34.436082	4.068256	64.745000
34.634757	4.066093	64.791000
34.660262	4.057960	65.159000
34.685172	4.054225	65.205000
34.710669	4.050357	65.250000
34.734988	4.050408	65.297000
34.759632	4.048366	65.344000
34.784277	4.045309	65.389000
34.809805	4.048427	65.436000
34.835022	4.046041	65.482000
34.860397	4.045197	65.529000
34.885772	4.042831	65.575000
34.910397	4.042579	65.621000
34.935937	4.040173	65.668000
34.960343	4.037827	65.714000
34.985065	4.033647	65.760000
35.010071	4.032253	65.806000
35.034973	4.034854	65.852000
35.119591	4.035846	65.899000
35.144424	4.036124	66.053000
35.343633	4.039339	66.099000
35.368811	4.038100	66.467000
35.393133	4.041623	66.513000
35.417970	4.041057	66.559000
35.442303	4.037595	66.604000
35.467855	4.038267	66.651000
35.493172	4.038813	66.698000
35.518393	4.043301	66.744000
35.543948	4.046092	66.789000
35.569073	4.048740	66.836000
35.593983	4.052344	66.883000
35.619077	4.057899	66.929000
35.706361	4.059178	66.975000
35.730533	4.066578	67.136000
35.823503	4.072478	67.182000
35.848835	4.076223	67.354000
35.874187	4.077628	67.401000
35.899561	4.084552	67.446000
35.924586	4.089016	67.493000
35.949873	4.095830	67.539000
35.974460	4.100045	67.585000
35.998632	4.102725	67.632000
36.023780	4.108724	67.678000
36.049054	4.112561	67.725000
36.074022	4.116544	67.771000
36.099277	4.118773	67.816000
36.124591	4.125991	67.863000
36.149627	4.126294	67.909000
36.174813	4.134536	67.955000
36.199301	4.137153	68.002000
36.224237	4.138563	68.048000
36.307975	4.142069	68.094000
36.333638	4.150386	68.249000
36.419712	4.167184	68.295000
36.444380	4.173730	68.454000
36.469820	4.185550	68.500000
36.494484	4.191839	68.546000
36.519178	4.202706	68.591000
36.543785	4.210999	68.637000
36.568683	4.217767	68.684000
36.593746	4.222179	68.729000
36.618856	4.225221	68.776000
36.644484	4.228800	68.821000
36.669374	4.234765	68.869000
36.694196	4.242865	68.914000
36.717988	4.247363	68.960000
36.742552	4.253192	69.006000
36.768341	4.261071	69.053000
36.793093	4.269151	69.098000
36.818407	4.276541	69.145000
36.902625	4.287699	69.191000
36.927934	4.313582	69.345000
37.015180	4.343875	69.392000
37.039986	4.356648	69.554000
37.064550	4.365807	69.599000
37.088987	4.380491	69.646000
37.114231	4.389230	69.691000
37.139191	4.399699	69.737000
37.164731	4.409161	69.784000
37.190297	4.416985	69.830000
37.215265	4.426782	69.876000
37.239909	4.443220	69.922000
37.264281	4.458444	69.969000
37.288918	4.461462	70.015000
37.314166	4.475519	70.061000
37.339472	4.483774	70.106000
37.364343	4.496011	70.153000
37.389345	4.503725	70.198000
37.414708	4.513015	70.244000
37.614240	4.523054	70.290000
37.638950	4.638471	70.658000
37.663291	4.652633	70.704000
37.688059	4.667695	70.750000
37.713575	4.684157	70.796000
37.738312	4.700131	70.842000
37.763844	4.716989	70.887000
37.789330	4.734538	70.935000
37.813948	4.743644	70.981000
37.838900	4.766552	71.027000
37.863894	4.783776	71.072000
37.888393	4.804965	71.119000
37.913268	4.814357	71.166000
37.938889	4.835768	71.212000
37.963925	4.849835	71.258000
37.988512	4.867027	71.304000
38.014267	4.879319	71.350000
38.096865	4.895429	71.396000
38.122128	4.944403	71.551000
38.322097	5.069858	71.597000
38.347046	5.087470	71.967000
38.372451	5.104962	72.013000
38.397795	5.122304	72.058000
38.422501	5.140989	72.105000
38.447399	5.160850	72.150000
38.472847	5.178924	72.197000
38.497491	5.201806	72.243000
38.521318	5.220218	72.289000
38.546377	5.238769	72.335000
38.571303	5.258963	72.381000
38.596612	5.281344	72.427000
38.685217	5.305172	72.472000
38.709724	5.384561	72.636000
38.803143	5.471737	72.683000
38.828714	5.494383	72.854000
38.853224	5.520628	72.899000
38.877857	5.546365	72.946000
38.902978	5.572947	72.992000
38.926835	5.596941	73.038000
38.952406	5.624687	73.084000
38.978176	5.651658	73.129000
39.002836	5.676703	73.177000
39.027335	5.705768	73.223000
39.053063	5.734004	73.268000
39.078514	5.760344	73.315000
39.102133	5.786446	73.361000
39.126713	5.814185	73.407000
39.152414	5.841138	73.453000
39.177035	5.867231	73.499000
39.201926	5.891765	73.545000
39.286571	5.921760	73.591000
39.311196	6.011847	73.746000
39.399714	6.114689	73.793000
39.423920	6.140336	73.954000
39.448185	6.164214	74.000000
39.473068	6.187512	74.045000
39.498012	6.213468	74.092000
39.523544	6.237715	74.138000
39.548761	6.262549	74.184000
39.574289	6.291986	74.230000
39.598823	6.322372	74.277000
39.623955	6.358268	74.323000
39.649357	6.389974	74.369000
39.673341	6.428645	74.416000
39.698638	6.462122	74.462000
39.723752	6.495727	74.508000
39.748681	6.529124	74.554000
39.773740	6.561919	74.600000
39.799522	6.593339	74.645000
39.881666	6.626766	74.693000
39.907075	6.738129	74.847000
39.993994	6.863390	74.894000
40.019569	6.898983	75.054000
40.044321	6.932935	75.100000
40.069158	6.971537	75.146000
40.094667	7.007394	75.192000
40.120126	7.044097	75.238000
40.145558	7.079748	75.284000
40.169830	7.115039	75.331000
40.194771	7.154092	75.376000
40.219123	7.191231	75.423000
40.244045	7.232895	75.470000
40.269777	7.272314	75.516000
40.295170	7.312175	75.562000
40.307837	7.373699	75.609000
40.345278	7.394348	75.654000
40.370261	7.434724	75.700000
40.394583	7.478387	75.746000
40.593000	7.521024	75.792000
40.618264	7.898387	76.159000
40.643085	7.950118	76.205000
40.667764	8.001644	76.252000
40.693757	8.049536	76.298000
40.719063	8.102667	76.345000
40.743873	8.152342	76.391000
40.768752	8.202324	76.436000
40.793619	8.251458	76.483000
40.818099	8.303238	76.529000
40.843450	8.353740	76.576000
40.868683	8.401916	76.621000
40.893247	8.447471	76.668000
40.918821	8.495592	76.714000
40.944161	8.539779	76.760000
40.969697	8.584686	76.806000
40.994300	8.629241	76.853000
41.077696	8.676685	76.898000
41.102125	8.844763	77.054000
41.302160	9.299546	77.101000
41.326959	9.359778	77.469000
41.352011	9.421834	77.515000
41.377846	9.482641	77.562000
41.403367	9.538376	77.608000
41.427566	9.596445	77.653000
41.453063	9.651410	77.699000
41.477758	9.706273	77.746000
41.502003	9.762369	77.791000
41.526990	9.820415	77.838000
41.552372	9.875817	77.884000
41.577839	9.931363	77.930000
41.664047	9.987653	77.976000
41.689898	10.177777	78.137000
41.781858	10.397422	78.183000
41.807179	10.459924	78.354000
41.831646	10.522652	78.400000
41.856049	10.582185	78.446000
41.881466	10.649148	78.491000
41.906625	10.712269	78.538000
41.931420	10.784881	78.584000
41.956676	10.857910	78.631000
41.982553	10.933216	78.677000
42.007091	11.010910	78.723000
42.031870	11.090960	78.770000
42.056115	11.168716	78.816000
42.081612	11.248215	78.862000
42.106465	11.325147	78.908000
42.131724	11.398757	78.954000
42.156783	11.473959	79.000000
42.180971	11.546125	79.046000
42.264306	11.616568	79.092000
42.289335	11.839262	79.245000
42.377049	12.068766	79.291000
42.402539	12.126983	79.454000
42.427226	12.188409	79.501000
42.453703	12.249959	79.548000
42.478716	12.312926	79.594000
42.502942	12.378444	79.639000
42.528125	12.446186	79.686000
42.553307	12.507646	79.731000
42.577445	12.576814	79.778000
42.601944	12.642408	79.824000
42.627357	12.708952	79.870000
42.652558	12.782387	79.917000
42.677779	12.857108	79.962000
42.703319	12.933185	80.009000
42.728602	13.012563	80.055000
42.752808	13.092419	80.100000
42.777737	13.171529	80.147000
42.860911	13.252773	80.193000
42.886066	13.552567	80.348000
42.973489	13.877726	80.394000
42.998226	13.966709	80.554000
43.024096	14.051684	80.601000
43.049171	14.136690	80.648000
43.073919	14.221889	80.694000
43.099098	14.309717	80.740000
43.123600	14.395702	80.785000
43.147750	14.476748	80.831000
43.172698	14.561759	80.877000
43.198180	14.654028	80.923000
43.223535	14.752584	80.970000
43.247800	14.855019	81.016000
43.274135	14.963405	81.062000
43.299037	15.078833	81.108000
43.323589	15.198045	81.154000
43.348484	15.311675	81.201000
43.372798	15.422107	81.246000
43.571726	15.533005	81.292000
43.597520	16.435189	81.660000
43.622564	16.547495	81.707000
43.647478	16.658494	81.752000
43.672549	16.770144	81.798000
43.698565	16.879573	81.845000
43.723375	16.995128	81.892000
43.747616	17.110271	81.938000
43.772311	17.232489	81.985000
43.797632	17.352173	82.031000
43.822142	17.473682	82.077000
43.848469	17.590176	82.123000
43.873536	17.718077	82.170000
43.898173	17.844865	82.216000
43.923905	17.973993	82.262000
43.949683	18.094765	82.309000
43.974593	18.208699	82.355000
44.057286	18.321445	82.401000
44.082830	18.710541	82.557000
44.281309	19.710885	82.602000
44.306991	19.834165	82.971000
44.332070	19.955405	83.017000
44.356868	20.073635	83.063000
44.383034	20.201454	83.110000
44.407656	20.333087	83.156000
44.431682	20.469253	83.202000
44.456699	20.596831	83.248000
44.481494	20.717195	83.294000
44.506292	20.834843	83.340000
44.531313	20.951873	83.386000
44.556857	21.063728	83.432000
44.642501	21.178994	83.478000
44.668536	21.637847	83.637000
44.759366	22.146993	83.684000
44.784579	22.298585	83.854000
44.810092	22.451667	83.900000
44.836051	22.618702	83.947000
44.860588	22.785987	83.992000
44.885693	22.951183	84.039000
44.911295	23.119532	84.084000
44.934710	23.290355	84.131000
44.959435	23.446769	84.176000
44.984491	23.594751	84.223000
45.009912	23.743977	84.269000
45.035717	23.883997	84.315000
45.061418	24.038305	84.361000
45.086750	24.192469	84.408000
45.111522	24.343985	84.454000
45.136808	24.491444	84.501000
45.162083	24.646865	84.547000
45.244826	24.792681	84.594000
45.270642	25.196870	84.747000
45.356474	25.664536	84.794000
45.382698	25.797146	84.954000
45.407546	25.922109	85.001000
45.432506	26.069628	85.047000
45.457681	26.243979	85.093000
45.483071	26.430662	85.140000
45.506878	26.621491	85.186000
45.531592	26.799599	85.231000
45.557093	26.968893	85.278000
45.581749	27.121081	85.324000
45.607216	27.273105	85.370000
45.633036	27.421702	85.417000
45.658081	27.565441	85.463000
45.682395	27.717353	85.509000
45.707796	27.882487	85.555000
45.733263	28.051107	85.602000
45.756786	28.213147	85.648000
45.841877	28.361376	85.694000
45.867009	28.879658	85.849000
45.953198	29.439188	85.895000
45.978488	29.608345	86.054000
46.002165	29.775012	86.100000
46.028273	29.943948	86.146000
46.052561	30.114112	86.193000
46.077570	30.277020	86.240000
46.103191	30.420156	86.286000
46.128051	30.553545	86.332000
46.152960	30.670376	86.378000
46.177882	30.793829	86.424000
46.204186	30.934340	86.470000
46.229004	31.086406	86.516000
46.253395	31.240714	86.563000
46.278520	31.417160	86.610000
46.303295	31.603221	86.655000
46.328162	31.802640	86.702000
46.353768	31.996626	86.749000
46.552239	32.182269	86.795000
46.577103	33.699762	87.160000
46.602773	33.856909	87.207000
46.628082	34.020130	87.254000
46.652059	34.176512	87.300000
46.677848	34.328489	87.346000
46.702731	34.476727	87.393000
46.727376	34.627005	87.439000
46.752477	34.787638	87.486000
46.778313	34.950543	87.532000
46.803638	35.118210	87.579000
46.828040	35.292241	87.624000
46.854107	35.466422	87.670000
46.878820	35.645007	87.717000
46.902969	35.825656	87.763000
46.927345	36.019322	87.808000
46.952854	36.232437	87.855000
47.036519	36.455341	87.901000
47.062236	37.185519	88.056000
47.261011	38.848459	88.102000
47.286531	39.042357	88.470000
47.311798	39.218151	88.516000
47.335713	39.396730	88.562000
47.360369	39.589529	88.608000
47.385744	39.800691	88.654000
47.411107	40.027351	88.700000
47.436028	40.254412	88.746000
47.461349	40.484032	88.792000
47.487100	40.715618	88.840000
47.511545	40.945796	88.886000
47.536962	41.170396	88.932000
47.622371	41.380948	88.978000
47.646255	42.096945	89.136000
